#  E (eV)   dosup(E)     dosdw(E)   Int dos(E) EFermi =  14.277 eV
  -9.000  0.8608E-85  0.8608E-85  0.1722E-86
  -8.990  0.8608E-85  0.8608E-85  0.3443E-86
  -8.980  0.8608E-85  0.8608E-85  0.5165E-86
  -8.970  0.8608E-85  0.8608E-85  0.6886E-86
  -8.960  0.8608E-85  0.8608E-85  0.8608E-86
  -8.950  0.8608E-85  0.8608E-85  0.1033E-85
  -8.940  0.8608E-85  0.8608E-85  0.1205E-85
  -8.930  0.8608E-85  0.8608E-85  0.1377E-85
  -8.920  0.8608E-85  0.8608E-85  0.1549E-85
  -8.910  0.8608E-85  0.8608E-85  0.1722E-85
  -8.900  0.8608E-85  0.8608E-85  0.1894E-85
  -8.890  0.8608E-85  0.8608E-85  0.2066E-85
  -8.880  0.8608E-85  0.8608E-85  0.2238E-85
  -8.870  0.8608E-85  0.8608E-85  0.2410E-85
  -8.860  0.8608E-85  0.8608E-85  0.2582E-85
  -8.850  0.8608E-85  0.8608E-85  0.2755E-85
  -8.840  0.8608E-85  0.8608E-85  0.2927E-85
  -8.830  0.8608E-85  0.8608E-85  0.3099E-85
  -8.820  0.8608E-85  0.8608E-85  0.3271E-85
  -8.810  0.8608E-85  0.8608E-85  0.3443E-85
  -8.800  0.8608E-85  0.8608E-85  0.3615E-85
  -8.790  0.8608E-85  0.8608E-85  0.3787E-85
  -8.780  0.8608E-85  0.8608E-85  0.3960E-85
  -8.770  0.8608E-85  0.8608E-85  0.4132E-85
  -8.760  0.8608E-85  0.8608E-85  0.4304E-85
  -8.750  0.8608E-85  0.8608E-85  0.4476E-85
  -8.740  0.8608E-85  0.8608E-85  0.4648E-85
  -8.730  0.8608E-85  0.8608E-85  0.4820E-85
  -8.720  0.8608E-85  0.8608E-85  0.4993E-85
  -8.710  0.8608E-85  0.8608E-85  0.5165E-85
  -8.700  0.8608E-85  0.8608E-85  0.5337E-85
  -8.690  0.8608E-85  0.8608E-85  0.5509E-85
  -8.680  0.8608E-85  0.8608E-85  0.5681E-85
  -8.670  0.8608E-85  0.8608E-85  0.5853E-85
  -8.660  0.8608E-85  0.8608E-85  0.6026E-85
  -8.650  0.8608E-85  0.8608E-85  0.6198E-85
  -8.640  0.8608E-85  0.8608E-85  0.6370E-85
  -8.630  0.8608E-85  0.8608E-85  0.6542E-85
  -8.620  0.8608E-85  0.8608E-85  0.6714E-85
  -8.610  0.8608E-85  0.8608E-85  0.6886E-85
  -8.600  0.8608E-85  0.8608E-85  0.7059E-85
  -8.590  0.8608E-85  0.8608E-85  0.7231E-85
  -8.580  0.8608E-85  0.8608E-85  0.7403E-85
  -8.570  0.8608E-85  0.8608E-85  0.7575E-85
  -8.560  0.8608E-85  0.8608E-85  0.7747E-85
  -8.550  0.8608E-85  0.8608E-85  0.7919E-85
  -8.540  0.8608E-85  0.8608E-85  0.8091E-85
  -8.530  0.8608E-85  0.8608E-85  0.8264E-85
  -8.520  0.8608E-85  0.8608E-85  0.8436E-85
  -8.510  0.8608E-85  0.8608E-85  0.8608E-85
  -8.500  0.8608E-85  0.8608E-85  0.8780E-85
  -8.490  0.8608E-85  0.8608E-85  0.8952E-85
  -8.480  0.8608E-85  0.8608E-85  0.9124E-85
  -8.470  0.8608E-85  0.8608E-85  0.9297E-85
  -8.460  0.8608E-85  0.8608E-85  0.9469E-85
  -8.450  0.8608E-85  0.8608E-85  0.9641E-85
  -8.440  0.8608E-85  0.8608E-85  0.9813E-85
  -8.430  0.8608E-85  0.8608E-85  0.9985E-85
  -8.420  0.8608E-85  0.8608E-85  0.1016E-84
  -8.410  0.8608E-85  0.8608E-85  0.1033E-84
  -8.400  0.8608E-85  0.8608E-85  0.1050E-84
  -8.390  0.8608E-85  0.8608E-85  0.1067E-84
  -8.380  0.8608E-85  0.8608E-85  0.1085E-84
  -8.370  0.8608E-85  0.8608E-85  0.1102E-84
  -8.360  0.8608E-85  0.8608E-85  0.1119E-84
  -8.350  0.8608E-85  0.8608E-85  0.1136E-84
  -8.340  0.8608E-85  0.8608E-85  0.1153E-84
  -8.330  0.8608E-85  0.8608E-85  0.1171E-84
  -8.320  0.8608E-85  0.8608E-85  0.1188E-84
  -8.310  0.8608E-85  0.8608E-85  0.1205E-84
  -8.300  0.8608E-85  0.8608E-85  0.1222E-84
  -8.290  0.8608E-85  0.8608E-85  0.1240E-84
  -8.280  0.8609E-85  0.8609E-85  0.1257E-84
  -8.270  0.8613E-85  0.8613E-85  0.1274E-84
  -8.260  0.8624E-85  0.8624E-85  0.1291E-84
  -8.250  0.8654E-85  0.8654E-85  0.1309E-84
  -8.240  0.8740E-85  0.8740E-85  0.1326E-84
  -8.230  0.8978E-85  0.8978E-85  0.1344E-84
  -8.220  0.9644E-85  0.9644E-85  0.1363E-84
  -8.210  0.1149E-84  0.1149E-84  0.1386E-84
  -8.200  0.1660E-84  0.1660E-84  0.1419E-84
  -8.190  0.3068E-84  0.3067E-84  0.1481E-84
  -8.180  0.6937E-84  0.6936E-84  0.1620E-84
  -8.170  0.1754E-83  0.1754E-83  0.1970E-84
  -8.160  0.4654E-83  0.4653E-83  0.2901E-84
  -8.150  0.1256E-82  0.1256E-82  0.5413E-84
  -8.140  0.3405E-82  0.3405E-82  0.1222E-83
  -8.130  0.9234E-82  0.9233E-82  0.3069E-83
  -8.120  0.2500E-81  0.2499E-81  0.8068E-83
  -8.110  0.6751E-81  0.6750E-81  0.2157E-82
  -8.100  0.1819E-80  0.1818E-80  0.5794E-82
  -8.090  0.4886E-80  0.4886E-80  0.1557E-81
  -8.080  0.1309E-79  0.1309E-79  0.4175E-81
  -8.070  0.3499E-79  0.3498E-79  0.1117E-80
  -8.060  0.9324E-79  0.9323E-79  0.2982E-80
  -8.050  0.2478E-78  0.2478E-78  0.7938E-80
  -8.040  0.6569E-78  0.6569E-78  0.2108E-79
  -8.030  0.1737E-77  0.1737E-77  0.5581E-79
  -8.020  0.4579E-77  0.4578E-77  0.1474E-78
  -8.010  0.1204E-76  0.1204E-76  0.3882E-78
  -8.000  0.3157E-76  0.3157E-76  0.1020E-77
  -7.990  0.8257E-76  0.8256E-76  0.2671E-77
  -7.980  0.2153E-75  0.2153E-75  0.6978E-77
  -7.970  0.5602E-75  0.5601E-75  0.1818E-76
  -7.960  0.1453E-74  0.1453E-74  0.4724E-76
  -7.950  0.3759E-74  0.3759E-74  0.1224E-75
  -7.940  0.9700E-74  0.9699E-74  0.3164E-75
  -7.930  0.2496E-73  0.2496E-73  0.8156E-75
  -7.920  0.6406E-73  0.6405E-73  0.2097E-74
  -7.910  0.1639E-72  0.1639E-72  0.5376E-74
  -7.900  0.4185E-72  0.4184E-72  0.1374E-73
  -7.890  0.1065E-71  0.1065E-71  0.3505E-73
  -7.880  0.2704E-71  0.2704E-71  0.8914E-73
  -7.870  0.6847E-71  0.6847E-71  0.2261E-72
  -7.860  0.1729E-70  0.1729E-70  0.5719E-72
  -7.850  0.4354E-70  0.4354E-70  0.1443E-71
  -7.840  0.1094E-69  0.1093E-69  0.3630E-71
  -7.830  0.2739E-69  0.2739E-69  0.9108E-71
  -7.820  0.6842E-69  0.6842E-69  0.2279E-70
  -7.810  0.1705E-68  0.1704E-68  0.5688E-70
  -7.800  0.4235E-68  0.4235E-68  0.1416E-69
  -7.790  0.1049E-67  0.1049E-67  0.3515E-69
  -7.780  0.2593E-67  0.2593E-67  0.8701E-69
  -7.770  0.6391E-67  0.6391E-67  0.2148E-68
  -7.760  0.1571E-66  0.1571E-66  0.5290E-68
  -7.750  0.3851E-66  0.3850E-66  0.1299E-67
  -7.740  0.9413E-66  0.9413E-66  0.3182E-67
  -7.730  0.2295E-65  0.2295E-65  0.7772E-67
  -7.720  0.5580E-65  0.5580E-65  0.1893E-66
  -7.710  0.1353E-64  0.1353E-64  0.4599E-66
  -7.700  0.3273E-64  0.3272E-64  0.1114E-65
  -7.690  0.7893E-64  0.7893E-64  0.2693E-65
  -7.680  0.1899E-63  0.1898E-63  0.6490E-65
  -7.670  0.4555E-63  0.4554E-63  0.1560E-64
  -7.660  0.1090E-62  0.1090E-62  0.3739E-64
  -7.650  0.2600E-62  0.2600E-62  0.8939E-64
  -7.640  0.6187E-62  0.6187E-62  0.2131E-63
  -7.630  0.1468E-61  0.1468E-61  0.5068E-63
  -7.620  0.3475E-61  0.3475E-61  0.1202E-62
  -7.610  0.8203E-61  0.8202E-61  0.2842E-62
  -7.600  0.1931E-60  0.1931E-60  0.6704E-62
  -7.590  0.4534E-60  0.4533E-60  0.1577E-61
  -7.580  0.1061E-59  0.1061E-59  0.3700E-61
  -7.570  0.2479E-59  0.2478E-59  0.8657E-61
  -7.560  0.5772E-59  0.5772E-59  0.2020E-60
  -7.550  0.1341E-58  0.1341E-58  0.4701E-60
  -7.540  0.3105E-58  0.3105E-58  0.1091E-59
  -7.530  0.7174E-58  0.7173E-58  0.2526E-59
  -7.520  0.1653E-57  0.1653E-57  0.5831E-59
  -7.510  0.3797E-57  0.3797E-57  0.1343E-58
  -7.500  0.8701E-57  0.8700E-57  0.3083E-58
  -7.490  0.1988E-56  0.1988E-56  0.7059E-58
  -7.480  0.4532E-56  0.4532E-56  0.1612E-57
  -7.470  0.1030E-55  0.1030E-55  0.3672E-57
  -7.460  0.2335E-55  0.2335E-55  0.8342E-57
  -7.450  0.5279E-55  0.5279E-55  0.1890E-56
  -7.440  0.1190E-54  0.1190E-54  0.4271E-56
  -7.430  0.2676E-54  0.2676E-54  0.9623E-56
  -7.420  0.6002E-54  0.6002E-54  0.2163E-55
  -7.410  0.1342E-53  0.1342E-53  0.4847E-55
  -7.400  0.2994E-53  0.2994E-53  0.1084E-54
  -7.390  0.6661E-53  0.6660E-53  0.2416E-54
  -7.380  0.1478E-52  0.1478E-52  0.5371E-54
  -7.370  0.3269E-52  0.3269E-52  0.1191E-53
  -7.360  0.7214E-52  0.7214E-52  0.2634E-53
  -7.350  0.1588E-51  0.1588E-51  0.5809E-53
  -7.340  0.3484E-51  0.3484E-51  0.1278E-52
  -7.330  0.7627E-51  0.7626E-51  0.2803E-52
  -7.320  0.1665E-50  0.1665E-50  0.6133E-52
  -7.310  0.3625E-50  0.3624E-50  0.1338E-51
  -7.300  0.7870E-50  0.7869E-50  0.2912E-51
  -7.290  0.1704E-49  0.1704E-49  0.6320E-51
  -7.280  0.3680E-49  0.3680E-49  0.1368E-50
  -7.270  0.7926E-49  0.7925E-49  0.2953E-50
  -7.260  0.1702E-48  0.1702E-48  0.6358E-50
  -7.250  0.3647E-48  0.3647E-48  0.1365E-49
  -7.240  0.7791E-48  0.7791E-48  0.2923E-49
  -7.230  0.1660E-47  0.1660E-47  0.6243E-49
  -7.220  0.3527E-47  0.3527E-47  0.1330E-48
  -7.210  0.7475E-47  0.7475E-47  0.2825E-48
  -7.200  0.1580E-46  0.1580E-46  0.5985E-48
  -7.190  0.3330E-46  0.3330E-46  0.1264E-47
  -7.180  0.7001E-46  0.7000E-46  0.2665E-47
  -7.170  0.1468E-45  0.1468E-45  0.5600E-47
  -7.160  0.3069E-45  0.3069E-45  0.1174E-46
  -7.150  0.6399E-45  0.6399E-45  0.2454E-46
  -7.140  0.1331E-44  0.1331E-44  0.5115E-46
  -7.130  0.2760E-44  0.2760E-44  0.1064E-45
  -7.120  0.5709E-44  0.5709E-44  0.2205E-45
  -7.110  0.1178E-43  0.1178E-43  0.4561E-45
  -7.100  0.2423E-43  0.2423E-43  0.9407E-45
  -7.090  0.4972E-43  0.4972E-43  0.1935E-44
  -7.080  0.1017E-42  0.1017E-42  0.3970E-44
  -7.070  0.2076E-42  0.2076E-42  0.8123E-44
  -7.060  0.4226E-42  0.4226E-42  0.1657E-43
  -7.050  0.8579E-42  0.8578E-42  0.3373E-43
  -7.040  0.1737E-41  0.1737E-41  0.6847E-43
  -7.030  0.3506E-41  0.3506E-41  0.1386E-42
  -7.020  0.7060E-41  0.7060E-41  0.2798E-42
  -7.010  0.1418E-40  0.1418E-40  0.5634E-42
  -7.000  0.2840E-40  0.2839E-40  0.1131E-41
  -6.990  0.5672E-40  0.5671E-40  0.2266E-41
  -6.980  0.1130E-39  0.1130E-39  0.4525E-41
  -6.970  0.2245E-39  0.2244E-39  0.9014E-41
  -6.960  0.4447E-39  0.4447E-39  0.1791E-40
  -6.950  0.8788E-39  0.8787E-39  0.3548E-40
  -6.940  0.1732E-38  0.1732E-38  0.7012E-40
  -6.930  0.3404E-38  0.3404E-38  0.1382E-39
  -6.920  0.6672E-38  0.6672E-38  0.2716E-39
  -6.910  0.1304E-37  0.1304E-37  0.5325E-39
  -6.900  0.2543E-37  0.2543E-37  0.1041E-38
  -6.890  0.4944E-37  0.4944E-37  0.2030E-38
  -6.880  0.9588E-37  0.9587E-37  0.3947E-38
  -6.870  0.1854E-36  0.1854E-36  0.7656E-38
  -6.860  0.3577E-36  0.3576E-36  0.1481E-37
  -6.850  0.6880E-36  0.6880E-36  0.2857E-37
  -6.840  0.1320E-35  0.1320E-35  0.5497E-37
  -6.830  0.2525E-35  0.2525E-35  0.1055E-36
  -6.820  0.4819E-35  0.4819E-35  0.2018E-36
  -6.810  0.9170E-35  0.9170E-35  0.3852E-36
  -6.800  0.1741E-34  0.1740E-34  0.7333E-36
  -6.790  0.3295E-34  0.3294E-34  0.1392E-35
  -6.780  0.6219E-34  0.6219E-34  0.2636E-35
  -6.770  0.1171E-33  0.1171E-33  0.4978E-35
  -6.760  0.2199E-33  0.2199E-33  0.9375E-35
  -6.750  0.4117E-33  0.4117E-33  0.1761E-34
  -6.740  0.7690E-33  0.7689E-33  0.3299E-34
  -6.730  0.1432E-32  0.1432E-32  0.6163E-34
  -6.720  0.2661E-32  0.2661E-32  0.1148E-33
  -6.710  0.4929E-32  0.4929E-32  0.2134E-33
  -6.700  0.9108E-32  0.9107E-32  0.3956E-33
  -6.690  0.1678E-31  0.1678E-31  0.7312E-33
  -6.680  0.3084E-31  0.3084E-31  0.1348E-32
  -6.670  0.5653E-31  0.5653E-31  0.2479E-32
  -6.660  0.1033E-30  0.1033E-30  0.4546E-32
  -6.650  0.1884E-30  0.1884E-30  0.8313E-32
  -6.640  0.3426E-30  0.3425E-30  0.1516E-31
  -6.630  0.6212E-30  0.6211E-30  0.2759E-31
  -6.620  0.1123E-29  0.1123E-29  0.5005E-31
  -6.610  0.2026E-29  0.2026E-29  0.9057E-31
  -6.600  0.3645E-29  0.3644E-29  0.1635E-30
  -6.590  0.6538E-29  0.6538E-29  0.2942E-30
  -6.580  0.1170E-28  0.1170E-28  0.5282E-30
  -6.570  0.2087E-28  0.2087E-28  0.9457E-30
  -6.560  0.3715E-28  0.3715E-28  0.1689E-29
  -6.550  0.6593E-28  0.6593E-28  0.3007E-29
  -6.540  0.1167E-27  0.1167E-27  0.5341E-29
  -6.530  0.2060E-27  0.2060E-27  0.9462E-29
  -6.520  0.3628E-27  0.3628E-27  0.1672E-28
  -6.510  0.6370E-27  0.6370E-27  0.2946E-28
  -6.500  0.1116E-26  0.1116E-26  0.5177E-28
  -6.490  0.1948E-26  0.1948E-26  0.9074E-28
  -6.480  0.3394E-26  0.3394E-26  0.1586E-27
  -6.470  0.5897E-26  0.5896E-26  0.2765E-27
  -6.460  0.1022E-25  0.1022E-25  0.4809E-27
  -6.450  0.1765E-25  0.1765E-25  0.8339E-27
  -6.440  0.3042E-25  0.3042E-25  0.1442E-26
  -6.430  0.5229E-25  0.5229E-25  0.2488E-26
  -6.420  0.8964E-25  0.8964E-25  0.4281E-26
  -6.410  0.1533E-24  0.1532E-24  0.7346E-26
  -6.400  0.2613E-24  0.2613E-24  0.1257E-25
  -6.390  0.4444E-24  0.4443E-24  0.2146E-25
  -6.380  0.7536E-24  0.7536E-24  0.3653E-25
  -6.370  0.1275E-23  0.1275E-23  0.6202E-25
  -6.360  0.2150E-23  0.2150E-23  0.1050E-24
  -6.350  0.3618E-23  0.3618E-23  0.1774E-24
  -6.340  0.6071E-23  0.6070E-23  0.2988E-24
  -6.330  0.1016E-22  0.1016E-22  0.5020E-24
  -6.320  0.1696E-22  0.1695E-22  0.8411E-24
  -6.310  0.2822E-22  0.2822E-22  0.1406E-23
  -6.300  0.4686E-22  0.4685E-22  0.2343E-23
  -6.290  0.7758E-22  0.7758E-22  0.3894E-23
  -6.280  0.1281E-21  0.1281E-21  0.6456E-23
  -6.270  0.2110E-21  0.2110E-21  0.1068E-22
  -6.260  0.3466E-21  0.3465E-21  0.1761E-22
  -6.250  0.5677E-21  0.5677E-21  0.2896E-22
  -6.240  0.9275E-21  0.9275E-21  0.4751E-22
  -6.230  0.1511E-20  0.1511E-20  0.7774E-22
  -6.220  0.2456E-20  0.2456E-20  0.1269E-21
  -6.210  0.3981E-20  0.3981E-20  0.2065E-21
  -6.200  0.6435E-20  0.6435E-20  0.3352E-21
  -6.190  0.1037E-19  0.1037E-19  0.5427E-21
  -6.180  0.1668E-19  0.1668E-19  0.8763E-21
  -6.170  0.2675E-19  0.2675E-19  0.1411E-20
  -6.160  0.4278E-19  0.4278E-19  0.2267E-20
  -6.150  0.6825E-19  0.6824E-19  0.3632E-20
  -6.140  0.1086E-18  0.1086E-18  0.5803E-20
  -6.130  0.1723E-18  0.1723E-18  0.9249E-20
  -6.120  0.2726E-18  0.2726E-18  0.1470E-19
  -6.110  0.4303E-18  0.4302E-18  0.2331E-19
  -6.100  0.6773E-18  0.6772E-18  0.3685E-19
  -6.090  0.1063E-17  0.1063E-17  0.5811E-19
  -6.080  0.1665E-17  0.1665E-17  0.9141E-19
  -6.070  0.2600E-17  0.2600E-17  0.1434E-18
  -6.060  0.4049E-17  0.4049E-17  0.2244E-18
  -6.050  0.6289E-17  0.6289E-17  0.3502E-18
  -6.040  0.9743E-17  0.9743E-17  0.5450E-18
  -6.030  0.1505E-16  0.1505E-16  0.8461E-18
  -6.020  0.2320E-16  0.2320E-16  0.1310E-17
  -6.010  0.3566E-16  0.3566E-16  0.2023E-17
  -6.000  0.5466E-16  0.5466E-16  0.3116E-17
  -5.990  0.8356E-16  0.8356E-16  0.4788E-17
  -5.980  0.1274E-15  0.1274E-15  0.7336E-17
  -5.970  0.1938E-15  0.1938E-15  0.1121E-16
  -5.960  0.2939E-15  0.2939E-15  0.1709E-16
  -5.950  0.4446E-15  0.4446E-15  0.2598E-16
  -5.940  0.6708E-15  0.6707E-15  0.3940E-16
  -5.930  0.1009E-14  0.1009E-14  0.5958E-16
  -5.920  0.1515E-14  0.1515E-14  0.8988E-16
  -5.910  0.2267E-14  0.2267E-14  0.1352E-15
  -5.900  0.3385E-14  0.3385E-14  0.2029E-15
  -5.890  0.5040E-14  0.5040E-14  0.3037E-15
  -5.880  0.7485E-14  0.7485E-14  0.4534E-15
  -5.870  0.1109E-13  0.1109E-13  0.6751E-15
  -5.860  0.1638E-13  0.1638E-13  0.1003E-14
  -5.850  0.2413E-13  0.2413E-13  0.1485E-14
  -5.840  0.3546E-13  0.3545E-13  0.2194E-14
  -5.830  0.5196E-13  0.5196E-13  0.3234E-14
  -5.820  0.7596E-13  0.7596E-13  0.4753E-14
  -5.810  0.1107E-12  0.1107E-12  0.6968E-14
  -5.800  0.1610E-12  0.1610E-12  0.1019E-13
  -5.790  0.2335E-12  0.2335E-12  0.1486E-13
  -5.780  0.3378E-12  0.3378E-12  0.2161E-13
  -5.770  0.4873E-12  0.4873E-12  0.3136E-13
  -5.760  0.7012E-12  0.7012E-12  0.4538E-13
  -5.750  0.1006E-11  0.1006E-11  0.6551E-13
  -5.740  0.1440E-11  0.1440E-11  0.9432E-13
  -5.730  0.2056E-11  0.2056E-11  0.1354E-12
  -5.720  0.2928E-11  0.2928E-11  0.1940E-12
  -5.710  0.4158E-11  0.4158E-11  0.2772E-12
  -5.700  0.5889E-11  0.5889E-11  0.3949E-12
  -5.690  0.8320E-11  0.8320E-11  0.5613E-12
  -5.680  0.1172E-10  0.1172E-10  0.7958E-12
  -5.670  0.1648E-10  0.1648E-10  0.1125E-11
  -5.660  0.2309E-10  0.2309E-10  0.1587E-11
  -5.650  0.3229E-10  0.3229E-10  0.2233E-11
  -5.640  0.4502E-10  0.4502E-10  0.3133E-11
  -5.630  0.6261E-10  0.6261E-10  0.4385E-11
  -5.620  0.8685E-10  0.8685E-10  0.6123E-11
  -5.610  0.1202E-09  0.1202E-09  0.8526E-11
  -5.600  0.1658E-09  0.1658E-09  0.1184E-10
  -5.590  0.2282E-09  0.2282E-09  0.1641E-10
  -5.580  0.3133E-09  0.3133E-09  0.2267E-10
  -5.570  0.4290E-09  0.4290E-09  0.3125E-10
  -5.560  0.5858E-09  0.5858E-09  0.4297E-10
  -5.550  0.7980E-09  0.7980E-09  0.5893E-10
  -5.540  0.1084E-08  0.1084E-08  0.8061E-10
  -5.530  0.1469E-08  0.1469E-08  0.1100E-09
  -5.520  0.1986E-08  0.1986E-08  0.1497E-09
  -5.510  0.2677E-08  0.2677E-08  0.2032E-09
  -5.500  0.3599E-08  0.3599E-08  0.2752E-09
  -5.490  0.4827E-08  0.4827E-08  0.3718E-09
  -5.480  0.6457E-08  0.6457E-08  0.5009E-09
  -5.470  0.8615E-08  0.8615E-08  0.6732E-09
  -5.460  0.1147E-07  0.1147E-07  0.9025E-09
  -5.450  0.1522E-07  0.1522E-07  0.1207E-08
  -5.440  0.2015E-07  0.2015E-07  0.1610E-08
  -5.430  0.2661E-07  0.2661E-07  0.2142E-08
  -5.420  0.3505E-07  0.3505E-07  0.2843E-08
  -5.410  0.4605E-07  0.4605E-07  0.3764E-08
  -5.400  0.6034E-07  0.6034E-07  0.4971E-08
  -5.390  0.7887E-07  0.7887E-07  0.6548E-08
  -5.380  0.1028E-06  0.1028E-06  0.8605E-08
  -5.370  0.1337E-06  0.1337E-06  0.1128E-07
  -5.360  0.1734E-06  0.1734E-06  0.1475E-07
  -5.350  0.2244E-06  0.2244E-06  0.1924E-07
  -5.340  0.2896E-06  0.2896E-06  0.2503E-07
  -5.330  0.3728E-06  0.3728E-06  0.3248E-07
  -5.320  0.4786E-06  0.4786E-06  0.4206E-07
  -5.310  0.6130E-06  0.6129E-06  0.5431E-07
  -5.300  0.7830E-06  0.7830E-06  0.6997E-07
  -5.290  0.9977E-06  0.9977E-06  0.8993E-07
  -5.280  0.1268E-05  0.1268E-05  0.1153E-06
  -5.270  0.1608E-05  0.1608E-05  0.1474E-06
  -5.260  0.2033E-05  0.2033E-05  0.1881E-06
  -5.250  0.2565E-05  0.2564E-05  0.2394E-06
  -5.240  0.3227E-05  0.3227E-05  0.3039E-06
  -5.230  0.4050E-05  0.4050E-05  0.3849E-06
  -5.220  0.5070E-05  0.5070E-05  0.4863E-06
  -5.210  0.6332E-05  0.6331E-05  0.6130E-06
  -5.200  0.7887E-05  0.7887E-05  0.7707E-06
  -5.190  0.9800E-05  0.9800E-05  0.9667E-06
  -5.180  0.1215E-04  0.1215E-04  0.1210E-05
  -5.170  0.1502E-04  0.1502E-04  0.1510E-05
  -5.160  0.1852E-04  0.1852E-04  0.1880E-05
  -5.150  0.2279E-04  0.2279E-04  0.2336E-05
  -5.140  0.2797E-04  0.2797E-04  0.2896E-05
  -5.130  0.3424E-04  0.3424E-04  0.3580E-05
  -5.120  0.4181E-04  0.4181E-04  0.4416E-05
  -5.110  0.5093E-04  0.5093E-04  0.5435E-05
  -5.100  0.6189E-04  0.6189E-04  0.6673E-05
  -5.090  0.7502E-04  0.7502E-04  0.8173E-05
  -5.080  0.9072E-04  0.9072E-04  0.9988E-05
  -5.070  0.1094E-03  0.1094E-03  0.1218E-04
  -5.060  0.1317E-03  0.1317E-03  0.1481E-04
  -5.050  0.1581E-03  0.1581E-03  0.1797E-04
  -5.040  0.1893E-03  0.1893E-03  0.2176E-04
  -5.030  0.2262E-03  0.2262E-03  0.2628E-04
  -5.020  0.2695E-03  0.2695E-03  0.3167E-04
  -5.010  0.3205E-03  0.3205E-03  0.3808E-04
  -5.000  0.3801E-03  0.3801E-03  0.4568E-04
  -4.990  0.4497E-03  0.4497E-03  0.5468E-04
  -4.980  0.5309E-03  0.5309E-03  0.6530E-04
  -4.970  0.6252E-03  0.6252E-03  0.7780E-04
  -4.960  0.7345E-03  0.7345E-03  0.9249E-04
  -4.950  0.8609E-03  0.8609E-03  0.1097E-03
  -4.940  0.1007E-02  0.1007E-02  0.1298E-03
  -4.930  0.1174E-02  0.1174E-02  0.1533E-03
  -4.920  0.1367E-02  0.1367E-02  0.1807E-03
  -4.910  0.1587E-02  0.1587E-02  0.2124E-03
  -4.900  0.1839E-02  0.1839E-02  0.2492E-03
  -4.890  0.2125E-02  0.2125E-02  0.2917E-03
  -4.880  0.2451E-02  0.2451E-02  0.3407E-03
  -4.870  0.2820E-02  0.2820E-02  0.3971E-03
  -4.860  0.3237E-02  0.3237E-02  0.4618E-03
  -4.850  0.3707E-02  0.3707E-02  0.5360E-03
  -4.840  0.4236E-02  0.4236E-02  0.6207E-03
  -4.830  0.4830E-02  0.4830E-02  0.7173E-03
  -4.820  0.5495E-02  0.5495E-02  0.8272E-03
  -4.810  0.6238E-02  0.6238E-02  0.9520E-03
  -4.800  0.7066E-02  0.7066E-02  0.1093E-02
  -4.790  0.7986E-02  0.7986E-02  0.1253E-02
  -4.780  0.9006E-02  0.9006E-02  0.1433E-02
  -4.770  0.1013E-01  0.1013E-01  0.1636E-02
  -4.760  0.1138E-01  0.1138E-01  0.1863E-02
  -4.750  0.1275E-01  0.1275E-01  0.2118E-02
  -4.740  0.1426E-01  0.1426E-01  0.2404E-02
  -4.730  0.1591E-01  0.1591E-01  0.2722E-02
  -4.720  0.1771E-01  0.1771E-01  0.3076E-02
  -4.710  0.1968E-01  0.1968E-01  0.3470E-02
  -4.700  0.2183E-01  0.2183E-01  0.3906E-02
  -4.690  0.2415E-01  0.2415E-01  0.4389E-02
  -4.680  0.2668E-01  0.2668E-01  0.4923E-02
  -4.670  0.2941E-01  0.2940E-01  0.5511E-02
  -4.660  0.3235E-01  0.3235E-01  0.6158E-02
  -4.650  0.3552E-01  0.3552E-01  0.6868E-02
  -4.640  0.3892E-01  0.3892E-01  0.7647E-02
  -4.630  0.4257E-01  0.4257E-01  0.8498E-02
  -4.620  0.4647E-01  0.4647E-01  0.9427E-02
  -4.610  0.5064E-01  0.5064E-01  0.1044E-01
  -4.600  0.5508E-01  0.5508E-01  0.1154E-01
  -4.590  0.5980E-01  0.5980E-01  0.1274E-01
  -4.580  0.6481E-01  0.6481E-01  0.1403E-01
  -4.570  0.7012E-01  0.7012E-01  0.1544E-01
  -4.560  0.7573E-01  0.7573E-01  0.1695E-01
  -4.550  0.8165E-01  0.8165E-01  0.1858E-01
  -4.540  0.8788E-01  0.8788E-01  0.2034E-01
  -4.530  0.9444E-01  0.9444E-01  0.2223E-01
  -4.520  0.1013E+00  0.1013E+00  0.2426E-01
  -4.510  0.1085E+00  0.1085E+00  0.2643E-01
  -4.500  0.1161E+00  0.1161E+00  0.2875E-01
  -4.490  0.1239E+00  0.1239E+00  0.3123E-01
  -4.480  0.1322E+00  0.1322E+00  0.3387E-01
  -4.470  0.1407E+00  0.1407E+00  0.3668E-01
  -4.460  0.1496E+00  0.1496E+00  0.3968E-01
  -4.450  0.1588E+00  0.1588E+00  0.4285E-01
  -4.440  0.1684E+00  0.1684E+00  0.4622E-01
  -4.430  0.1783E+00  0.1783E+00  0.4979E-01
  -4.420  0.1885E+00  0.1885E+00  0.5356E-01
  -4.410  0.1991E+00  0.1991E+00  0.5754E-01
  -4.400  0.2100E+00  0.2100E+00  0.6174E-01
  -4.390  0.2212E+00  0.2212E+00  0.6616E-01
  -4.380  0.2327E+00  0.2327E+00  0.7081E-01
  -4.370  0.2446E+00  0.2446E+00  0.7571E-01
  -4.360  0.2568E+00  0.2568E+00  0.8084E-01
  -4.350  0.2693E+00  0.2693E+00  0.8623E-01
  -4.340  0.2821E+00  0.2821E+00  0.9187E-01
  -4.330  0.2952E+00  0.2952E+00  0.9777E-01
  -4.320  0.3086E+00  0.3086E+00  0.1039E+00
  -4.310  0.3222E+00  0.3222E+00  0.1104E+00
  -4.300  0.3362E+00  0.3362E+00  0.1171E+00
  -4.290  0.3505E+00  0.3505E+00  0.1241E+00
  -4.280  0.3650E+00  0.3650E+00  0.1314E+00
  -4.270  0.3798E+00  0.3798E+00  0.1390E+00
  -4.260  0.3948E+00  0.3948E+00  0.1469E+00
  -4.250  0.4101E+00  0.4101E+00  0.1551E+00
  -4.240  0.4256E+00  0.4256E+00  0.1636E+00
  -4.230  0.4413E+00  0.4413E+00  0.1724E+00
  -4.220  0.4573E+00  0.4573E+00  0.1816E+00
  -4.210  0.4734E+00  0.4734E+00  0.1911E+00
  -4.200  0.4897E+00  0.4897E+00  0.2009E+00
  -4.190  0.5062E+00  0.5062E+00  0.2110E+00
  -4.180  0.5229E+00  0.5229E+00  0.2214E+00
  -4.170  0.5397E+00  0.5397E+00  0.2322E+00
  -4.160  0.5566E+00  0.5566E+00  0.2434E+00
  -4.150  0.5736E+00  0.5736E+00  0.2548E+00
  -4.140  0.5908E+00  0.5907E+00  0.2667E+00
  -4.130  0.6079E+00  0.6079E+00  0.2788E+00
  -4.120  0.6251E+00  0.6251E+00  0.2913E+00
  -4.110  0.6423E+00  0.6423E+00  0.3042E+00
  -4.100  0.6595E+00  0.6595E+00  0.3174E+00
  -4.090  0.6767E+00  0.6767E+00  0.3309E+00
  -4.080  0.6938E+00  0.6938E+00  0.3448E+00
  -4.070  0.7108E+00  0.7108E+00  0.3590E+00
  -4.060  0.7277E+00  0.7277E+00  0.3735E+00
  -4.050  0.7445E+00  0.7445E+00  0.3884E+00
  -4.040  0.7610E+00  0.7610E+00  0.4036E+00
  -4.030  0.7774E+00  0.7774E+00  0.4192E+00
  -4.020  0.7935E+00  0.7935E+00  0.4351E+00
  -4.010  0.8093E+00  0.8093E+00  0.4512E+00
  -4.000  0.8249E+00  0.8249E+00  0.4677E+00
  -3.990  0.8401E+00  0.8401E+00  0.4845E+00
  -3.980  0.8550E+00  0.8550E+00  0.5016E+00
  -3.970  0.8695E+00  0.8695E+00  0.5190E+00
  -3.960  0.8835E+00  0.8835E+00  0.5367E+00
  -3.950  0.8972E+00  0.8972E+00  0.5547E+00
  -3.940  0.9104E+00  0.9104E+00  0.5729E+00
  -3.930  0.9230E+00  0.9230E+00  0.5913E+00
  -3.920  0.9352E+00  0.9352E+00  0.6100E+00
  -3.910  0.9469E+00  0.9469E+00  0.6290E+00
  -3.900  0.9580E+00  0.9580E+00  0.6481E+00
  -3.890  0.9685E+00  0.9685E+00  0.6675E+00
  -3.880  0.9785E+00  0.9784E+00  0.6871E+00
  -3.870  0.9878E+00  0.9878E+00  0.7068E+00
  -3.860  0.9965E+00  0.9965E+00  0.7267E+00
  -3.850  0.1005E+01  0.1005E+01  0.7468E+00
  -3.840  0.1012E+01  0.1012E+01  0.7671E+00
  -3.830  0.1019E+01  0.1019E+01  0.7875E+00
  -3.820  0.1025E+01  0.1025E+01  0.8080E+00
  -3.810  0.1031E+01  0.1031E+01  0.8286E+00
  -3.800  0.1036E+01  0.1036E+01  0.8493E+00
  -3.790  0.1040E+01  0.1040E+01  0.8701E+00
  -3.780  0.1043E+01  0.1043E+01  0.8910E+00
  -3.770  0.1046E+01  0.1046E+01  0.9119E+00
  -3.760  0.1048E+01  0.1048E+01  0.9328E+00
  -3.750  0.1050E+01  0.1050E+01  0.9538E+00
  -3.740  0.1051E+01  0.1051E+01  0.9749E+00
  -3.730  0.1051E+01  0.1051E+01  0.9959E+00
  -3.720  0.1051E+01  0.1051E+01  0.1017E+01
  -3.710  0.1050E+01  0.1050E+01  0.1038E+01
  -3.700  0.1048E+01  0.1048E+01  0.1059E+01
  -3.690  0.1046E+01  0.1046E+01  0.1080E+01
  -3.680  0.1043E+01  0.1043E+01  0.1101E+01
  -3.670  0.1039E+01  0.1039E+01  0.1121E+01
  -3.660  0.1035E+01  0.1035E+01  0.1142E+01
  -3.650  0.1030E+01  0.1030E+01  0.1163E+01
  -3.640  0.1024E+01  0.1024E+01  0.1183E+01
  -3.630  0.1018E+01  0.1018E+01  0.1204E+01
  -3.620  0.1012E+01  0.1012E+01  0.1224E+01
  -3.610  0.1004E+01  0.1004E+01  0.1244E+01
  -3.600  0.9965E+00  0.9965E+00  0.1264E+01
  -3.590  0.9881E+00  0.9881E+00  0.1284E+01
  -3.580  0.9791E+00  0.9791E+00  0.1303E+01
  -3.570  0.9695E+00  0.9695E+00  0.1323E+01
  -3.560  0.9594E+00  0.9594E+00  0.1342E+01
  -3.550  0.9488E+00  0.9488E+00  0.1361E+01
  -3.540  0.9377E+00  0.9377E+00  0.1379E+01
  -3.530  0.9261E+00  0.9261E+00  0.1398E+01
  -3.520  0.9140E+00  0.9140E+00  0.1416E+01
  -3.510  0.9015E+00  0.9015E+00  0.1434E+01
  -3.500  0.8885E+00  0.8885E+00  0.1452E+01
  -3.490  0.8751E+00  0.8751E+00  0.1470E+01
  -3.480  0.8613E+00  0.8613E+00  0.1487E+01
  -3.470  0.8471E+00  0.8471E+00  0.1504E+01
  -3.460  0.8325E+00  0.8325E+00  0.1520E+01
  -3.450  0.8177E+00  0.8177E+00  0.1537E+01
  -3.440  0.8025E+00  0.8025E+00  0.1553E+01
  -3.430  0.7870E+00  0.7870E+00  0.1569E+01
  -3.420  0.7713E+00  0.7713E+00  0.1584E+01
  -3.410  0.7553E+00  0.7553E+00  0.1599E+01
  -3.400  0.7392E+00  0.7392E+00  0.1614E+01
  -3.390  0.7229E+00  0.7229E+00  0.1628E+01
  -3.380  0.7064E+00  0.7064E+00  0.1642E+01
  -3.370  0.6898E+00  0.6898E+00  0.1656E+01
  -3.360  0.6732E+00  0.6732E+00  0.1670E+01
  -3.350  0.6564E+00  0.6564E+00  0.1683E+01
  -3.340  0.6396E+00  0.6396E+00  0.1696E+01
  -3.330  0.6229E+00  0.6229E+00  0.1708E+01
  -3.320  0.6061E+00  0.6061E+00  0.1720E+01
  -3.310  0.5894E+00  0.5894E+00  0.1732E+01
  -3.300  0.5727E+00  0.5727E+00  0.1743E+01
  -3.290  0.5562E+00  0.5562E+00  0.1755E+01
  -3.280  0.5397E+00  0.5397E+00  0.1765E+01
  -3.270  0.5234E+00  0.5234E+00  0.1776E+01
  -3.260  0.5072E+00  0.5072E+00  0.1786E+01
  -3.250  0.4912E+00  0.4912E+00  0.1796E+01
  -3.240  0.4753E+00  0.4753E+00  0.1805E+01
  -3.230  0.4597E+00  0.4597E+00  0.1814E+01
  -3.220  0.4443E+00  0.4443E+00  0.1823E+01
  -3.210  0.4291E+00  0.4291E+00  0.1832E+01
  -3.200  0.4141E+00  0.4141E+00  0.1840E+01
  -3.190  0.3994E+00  0.3994E+00  0.1848E+01
  -3.180  0.3850E+00  0.3850E+00  0.1856E+01
  -3.170  0.3708E+00  0.3708E+00  0.1863E+01
  -3.160  0.3569E+00  0.3569E+00  0.1870E+01
  -3.150  0.3432E+00  0.3432E+00  0.1877E+01
  -3.140  0.3299E+00  0.3299E+00  0.1884E+01
  -3.130  0.3168E+00  0.3168E+00  0.1890E+01
  -3.120  0.3040E+00  0.3040E+00  0.1896E+01
  -3.110  0.2915E+00  0.2915E+00  0.1902E+01
  -3.100  0.2793E+00  0.2793E+00  0.1908E+01
  -3.090  0.2674E+00  0.2674E+00  0.1913E+01
  -3.080  0.2558E+00  0.2558E+00  0.1918E+01
  -3.070  0.2445E+00  0.2445E+00  0.1923E+01
  -3.060  0.2334E+00  0.2334E+00  0.1928E+01
  -3.050  0.2227E+00  0.2227E+00  0.1932E+01
  -3.040  0.2123E+00  0.2123E+00  0.1936E+01
  -3.030  0.2022E+00  0.2022E+00  0.1941E+01
  -3.020  0.1923E+00  0.1923E+00  0.1944E+01
  -3.010  0.1828E+00  0.1828E+00  0.1948E+01
  -3.000  0.1736E+00  0.1736E+00  0.1951E+01
  -2.990  0.1646E+00  0.1646E+00  0.1955E+01
  -2.980  0.1559E+00  0.1559E+00  0.1958E+01
  -2.970  0.1476E+00  0.1476E+00  0.1961E+01
  -2.960  0.1395E+00  0.1395E+00  0.1964E+01
  -2.950  0.1317E+00  0.1317E+00  0.1966E+01
  -2.940  0.1241E+00  0.1241E+00  0.1969E+01
  -2.930  0.1169E+00  0.1169E+00  0.1971E+01
  -2.920  0.1100E+00  0.1100E+00  0.1973E+01
  -2.910  0.1033E+00  0.1033E+00  0.1975E+01
  -2.900  0.9687E-01  0.9687E-01  0.1977E+01
  -2.890  0.9073E-01  0.9073E-01  0.1979E+01
  -2.880  0.8486E-01  0.8486E-01  0.1981E+01
  -2.870  0.7926E-01  0.7926E-01  0.1982E+01
  -2.860  0.7391E-01  0.7392E-01  0.1984E+01
  -2.850  0.6883E-01  0.6883E-01  0.1985E+01
  -2.840  0.6399E-01  0.6399E-01  0.1987E+01
  -2.830  0.5940E-01  0.5940E-01  0.1988E+01
  -2.820  0.5504E-01  0.5505E-01  0.1989E+01
  -2.810  0.5093E-01  0.5093E-01  0.1990E+01
  -2.800  0.4704E-01  0.4704E-01  0.1991E+01
  -2.790  0.4338E-01  0.4338E-01  0.1992E+01
  -2.780  0.3993E-01  0.3993E-01  0.1992E+01
  -2.770  0.3669E-01  0.3669E-01  0.1993E+01
  -2.760  0.3366E-01  0.3366E-01  0.1994E+01
  -2.750  0.3082E-01  0.3082E-01  0.1994E+01
  -2.740  0.2816E-01  0.2817E-01  0.1995E+01
  -2.730  0.2569E-01  0.2569E-01  0.1996E+01
  -2.720  0.2340E-01  0.2340E-01  0.1996E+01
  -2.710  0.2126E-01  0.2126E-01  0.1996E+01
  -2.700  0.1929E-01  0.1929E-01  0.1997E+01
  -2.690  0.1746E-01  0.1746E-01  0.1997E+01
  -2.680  0.1578E-01  0.1578E-01  0.1997E+01
  -2.670  0.1423E-01  0.1423E-01  0.1998E+01
  -2.660  0.1280E-01  0.1280E-01  0.1998E+01
  -2.650  0.1150E-01  0.1150E-01  0.1998E+01
  -2.640  0.1031E-01  0.1031E-01  0.1998E+01
  -2.630  0.9217E-02  0.9217E-02  0.1999E+01
  -2.620  0.8227E-02  0.8227E-02  0.1999E+01
  -2.610  0.7328E-02  0.7328E-02  0.1999E+01
  -2.600  0.6513E-02  0.6514E-02  0.1999E+01
  -2.590  0.5777E-02  0.5777E-02  0.1999E+01
  -2.580  0.5113E-02  0.5113E-02  0.1999E+01
  -2.570  0.4516E-02  0.4516E-02  0.1999E+01
  -2.560  0.3979E-02  0.3979E-02  0.1999E+01
  -2.550  0.3499E-02  0.3499E-02  0.2000E+01
  -2.540  0.3070E-02  0.3070E-02  0.2000E+01
  -2.530  0.2687E-02  0.2688E-02  0.2000E+01
  -2.520  0.2347E-02  0.2348E-02  0.2000E+01
  -2.510  0.2046E-02  0.2046E-02  0.2000E+01
  -2.500  0.1779E-02  0.1779E-02  0.2000E+01
  -2.490  0.1544E-02  0.1544E-02  0.2000E+01
  -2.480  0.1336E-02  0.1336E-02  0.2000E+01
  -2.470  0.1154E-02  0.1154E-02  0.2000E+01
  -2.460  0.9944E-03  0.9945E-03  0.2000E+01
  -2.450  0.8549E-03  0.8550E-03  0.2000E+01
  -2.440  0.7333E-03  0.7333E-03  0.2000E+01
  -2.430  0.6275E-03  0.6275E-03  0.2000E+01
  -2.420  0.5358E-03  0.5358E-03  0.2000E+01
  -2.410  0.4563E-03  0.4563E-03  0.2000E+01
  -2.400  0.3878E-03  0.3878E-03  0.2000E+01
  -2.390  0.3287E-03  0.3287E-03  0.2000E+01
  -2.380  0.2780E-03  0.2780E-03  0.2000E+01
  -2.370  0.2346E-03  0.2346E-03  0.2000E+01
  -2.360  0.1975E-03  0.1975E-03  0.2000E+01
  -2.350  0.1658E-03  0.1658E-03  0.2000E+01
  -2.340  0.1389E-03  0.1389E-03  0.2000E+01
  -2.330  0.1161E-03  0.1161E-03  0.2000E+01
  -2.320  0.9679E-04  0.9679E-04  0.2000E+01
  -2.310  0.8050E-04  0.8050E-04  0.2000E+01
  -2.300  0.6679E-04  0.6679E-04  0.2000E+01
  -2.290  0.5528E-04  0.5528E-04  0.2000E+01
  -2.280  0.4564E-04  0.4564E-04  0.2000E+01
  -2.270  0.3759E-04  0.3759E-04  0.2000E+01
  -2.260  0.3089E-04  0.3089E-04  0.2000E+01
  -2.250  0.2532E-04  0.2532E-04  0.2000E+01
  -2.240  0.2070E-04  0.2070E-04  0.2000E+01
  -2.230  0.1688E-04  0.1688E-04  0.2000E+01
  -2.220  0.1374E-04  0.1374E-04  0.2000E+01
  -2.210  0.1115E-04  0.1115E-04  0.2000E+01
  -2.200  0.9025E-05  0.9025E-05  0.2000E+01
  -2.190  0.7288E-05  0.7288E-05  0.2000E+01
  -2.180  0.5871E-05  0.5871E-05  0.2000E+01
  -2.170  0.4718E-05  0.4718E-05  0.2000E+01
  -2.160  0.3782E-05  0.3782E-05  0.2000E+01
  -2.150  0.3024E-05  0.3024E-05  0.2000E+01
  -2.140  0.2412E-05  0.2412E-05  0.2000E+01
  -2.130  0.1919E-05  0.1919E-05  0.2000E+01
  -2.120  0.1522E-05  0.1523E-05  0.2000E+01
  -2.110  0.1205E-05  0.1205E-05  0.2000E+01
  -2.100  0.9516E-06  0.9516E-06  0.2000E+01
  -2.090  0.7494E-06  0.7495E-06  0.2000E+01
  -2.080  0.5888E-06  0.5888E-06  0.2000E+01
  -2.070  0.4614E-06  0.4614E-06  0.2000E+01
  -2.060  0.3606E-06  0.3606E-06  0.2000E+01
  -2.050  0.2812E-06  0.2812E-06  0.2000E+01
  -2.040  0.2186E-06  0.2187E-06  0.2000E+01
  -2.030  0.1696E-06  0.1696E-06  0.2000E+01
  -2.020  0.1312E-06  0.1312E-06  0.2000E+01
  -2.010  0.1013E-06  0.1013E-06  0.2000E+01
  -2.000  0.7796E-07  0.7796E-07  0.2000E+01
  -1.990  0.5986E-07  0.5986E-07  0.2000E+01
  -1.980  0.4584E-07  0.4584E-07  0.2000E+01
  -1.970  0.3502E-07  0.3502E-07  0.2000E+01
  -1.960  0.2668E-07  0.2668E-07  0.2000E+01
  -1.950  0.2028E-07  0.2028E-07  0.2000E+01
  -1.940  0.1537E-07  0.1537E-07  0.2000E+01
  -1.930  0.1162E-07  0.1162E-07  0.2000E+01
  -1.920  0.8765E-08  0.8766E-08  0.2000E+01
  -1.910  0.6593E-08  0.6594E-08  0.2000E+01
  -1.900  0.4947E-08  0.4947E-08  0.2000E+01
  -1.890  0.3702E-08  0.3702E-08  0.2000E+01
  -1.880  0.2763E-08  0.2763E-08  0.2000E+01
  -1.870  0.2057E-08  0.2057E-08  0.2000E+01
  -1.860  0.1527E-08  0.1528E-08  0.2000E+01
  -1.850  0.1131E-08  0.1131E-08  0.2000E+01
  -1.840  0.8357E-09  0.8357E-09  0.2000E+01
  -1.830  0.6157E-09  0.6158E-09  0.2000E+01
  -1.820  0.4525E-09  0.4525E-09  0.2000E+01
  -1.810  0.3317E-09  0.3317E-09  0.2000E+01
  -1.800  0.2425E-09  0.2425E-09  0.2000E+01
  -1.790  0.1768E-09  0.1768E-09  0.2000E+01
  -1.780  0.1286E-09  0.1286E-09  0.2000E+01
  -1.770  0.9327E-10  0.9328E-10  0.2000E+01
  -1.760  0.6748E-10  0.6749E-10  0.2000E+01
  -1.750  0.4870E-10  0.4870E-10  0.2000E+01
  -1.740  0.3505E-10  0.3505E-10  0.2000E+01
  -1.730  0.2516E-10  0.2516E-10  0.2000E+01
  -1.720  0.1801E-10  0.1801E-10  0.2000E+01
  -1.710  0.1286E-10  0.1286E-10  0.2000E+01
  -1.700  0.9161E-11  0.9162E-11  0.2000E+01
  -1.690  0.6508E-11  0.6508E-11  0.2000E+01
  -1.680  0.4611E-11  0.4611E-11  0.2000E+01
  -1.670  0.3258E-11  0.3258E-11  0.2000E+01
  -1.660  0.2296E-11  0.2297E-11  0.2000E+01
  -1.650  0.1614E-11  0.1614E-11  0.2000E+01
  -1.640  0.1132E-11  0.1132E-11  0.2000E+01
  -1.630  0.7914E-12  0.7915E-12  0.2000E+01
  -1.620  0.5520E-12  0.5520E-12  0.2000E+01
  -1.610  0.3839E-12  0.3840E-12  0.2000E+01
  -1.600  0.2664E-12  0.2664E-12  0.2000E+01
  -1.590  0.1843E-12  0.1843E-12  0.2000E+01
  -1.580  0.1272E-12  0.1272E-12  0.2000E+01
  -1.570  0.8755E-13  0.8755E-13  0.2000E+01
  -1.560  0.6010E-13  0.6010E-13  0.2000E+01
  -1.550  0.4115E-13  0.4115E-13  0.2000E+01
  -1.540  0.2810E-13  0.2810E-13  0.2000E+01
  -1.530  0.1914E-13  0.1914E-13  0.2000E+01
  -1.520  0.1300E-13  0.1300E-13  0.2000E+01
  -1.510  0.8807E-14  0.8808E-14  0.2000E+01
  -1.500  0.5951E-14  0.5951E-14  0.2000E+01
  -1.490  0.4010E-14  0.4011E-14  0.2000E+01
  -1.480  0.2695E-14  0.2696E-14  0.2000E+01
  -1.470  0.1807E-14  0.1807E-14  0.2000E+01
  -1.460  0.1208E-14  0.1208E-14  0.2000E+01
  -1.450  0.8055E-15  0.8056E-15  0.2000E+01
  -1.440  0.5357E-15  0.5357E-15  0.2000E+01
  -1.430  0.3553E-15  0.3553E-15  0.2000E+01
  -1.420  0.2350E-15  0.2351E-15  0.2000E+01
  -1.410  0.1551E-15  0.1551E-15  0.2000E+01
  -1.400  0.1020E-15  0.1020E-15  0.2000E+01
  -1.390  0.6697E-16  0.6697E-16  0.2000E+01
  -1.380  0.4383E-16  0.4383E-16  0.2000E+01
  -1.370  0.2861E-16  0.2861E-16  0.2000E+01
  -1.360  0.1863E-16  0.1863E-16  0.2000E+01
  -1.350  0.1210E-16  0.1210E-16  0.2000E+01
  -1.340  0.7833E-17  0.7834E-17  0.2000E+01
  -1.330  0.5059E-17  0.5060E-17  0.2000E+01
  -1.320  0.3259E-17  0.3259E-17  0.2000E+01
  -1.310  0.2094E-17  0.2094E-17  0.2000E+01
  -1.300  0.1342E-17  0.1342E-17  0.2000E+01
  -1.290  0.8573E-18  0.8574E-18  0.2000E+01
  -1.280  0.5464E-18  0.5464E-18  0.2000E+01
  -1.270  0.3473E-18  0.3473E-18  0.2000E+01
  -1.260  0.2202E-18  0.2202E-18  0.2000E+01
  -1.250  0.1392E-18  0.1392E-18  0.2000E+01
  -1.240  0.8778E-19  0.8779E-19  0.2000E+01
  -1.230  0.5521E-19  0.5521E-19  0.2000E+01
  -1.220  0.3463E-19  0.3463E-19  0.2000E+01
  -1.210  0.2166E-19  0.2166E-19  0.2000E+01
  -1.200  0.1351E-19  0.1351E-19  0.2000E+01
  -1.190  0.8408E-20  0.8409E-20  0.2000E+01
  -1.180  0.5218E-20  0.5218E-20  0.2000E+01
  -1.170  0.3229E-20  0.3229E-20  0.2000E+01
  -1.160  0.1993E-20  0.1993E-20  0.2000E+01
  -1.150  0.1227E-20  0.1227E-20  0.2000E+01
  -1.140  0.7534E-21  0.7534E-21  0.2000E+01
  -1.130  0.4613E-21  0.4613E-21  0.2000E+01
  -1.120  0.2817E-21  0.2817E-21  0.2000E+01
  -1.110  0.1716E-21  0.1716E-21  0.2000E+01
  -1.100  0.1042E-21  0.1042E-21  0.2000E+01
  -1.090  0.6313E-22  0.6314E-22  0.2000E+01
  -1.080  0.3814E-22  0.3815E-22  0.2000E+01
  -1.070  0.2298E-22  0.2299E-22  0.2000E+01
  -1.060  0.1381E-22  0.1381E-22  0.2000E+01
  -1.050  0.8279E-23  0.8279E-23  0.2000E+01
  -1.040  0.4948E-23  0.4949E-23  0.2000E+01
  -1.030  0.2950E-23  0.2950E-23  0.2000E+01
  -1.020  0.1754E-23  0.1754E-23  0.2000E+01
  -1.010  0.1040E-23  0.1040E-23  0.2000E+01
  -1.000  0.6150E-24  0.6150E-24  0.2000E+01
  -0.990  0.3627E-24  0.3627E-24  0.2000E+01
  -0.980  0.2134E-24  0.2134E-24  0.2000E+01
  -0.970  0.1252E-24  0.1252E-24  0.2000E+01
  -0.960  0.7323E-25  0.7323E-25  0.2000E+01
  -0.950  0.4273E-25  0.4273E-25  0.2000E+01
  -0.940  0.2486E-25  0.2487E-25  0.2000E+01
  -0.930  0.1443E-25  0.1443E-25  0.2000E+01
  -0.920  0.8353E-26  0.8353E-26  0.2000E+01
  -0.910  0.4822E-26  0.4822E-26  0.2000E+01
  -0.900  0.2776E-26  0.2776E-26  0.2000E+01
  -0.890  0.1594E-26  0.1594E-26  0.2000E+01
  -0.880  0.9127E-27  0.9128E-27  0.2000E+01
  -0.870  0.5212E-27  0.5213E-27  0.2000E+01
  -0.860  0.2969E-27  0.2969E-27  0.2000E+01
  -0.850  0.1686E-27  0.1687E-27  0.2000E+01
  -0.840  0.9554E-28  0.9554E-28  0.2000E+01
  -0.830  0.5398E-28  0.5398E-28  0.2000E+01
  -0.820  0.3042E-28  0.3042E-28  0.2000E+01
  -0.810  0.1709E-28  0.1709E-28  0.2000E+01
  -0.800  0.9580E-29  0.9580E-29  0.2000E+01
  -0.790  0.5355E-29  0.5355E-29  0.2000E+01
  -0.780  0.2985E-29  0.2985E-29  0.2000E+01
  -0.770  0.1660E-29  0.1660E-29  0.2000E+01
  -0.760  0.9202E-30  0.9202E-30  0.2000E+01
  -0.750  0.5088E-30  0.5089E-30  0.2000E+01
  -0.740  0.2806E-30  0.2806E-30  0.2000E+01
  -0.730  0.1543E-30  0.1544E-30  0.2000E+01
  -0.720  0.8466E-31  0.8467E-31  0.2000E+01
  -0.710  0.4631E-31  0.4632E-31  0.2000E+01
  -0.700  0.2527E-31  0.2527E-31  0.2000E+01
  -0.690  0.1375E-31  0.1375E-31  0.2000E+01
  -0.680  0.7461E-32  0.7462E-32  0.2000E+01
  -0.670  0.4038E-32  0.4038E-32  0.2000E+01
  -0.660  0.2180E-32  0.2180E-32  0.2000E+01
  -0.650  0.1173E-32  0.1173E-32  0.2000E+01
  -0.640  0.6299E-33  0.6299E-33  0.2000E+01
  -0.630  0.3372E-33  0.3373E-33  0.2000E+01
  -0.620  0.1801E-33  0.1801E-33  0.2000E+01
  -0.610  0.9590E-34  0.9591E-34  0.2000E+01
  -0.600  0.5093E-34  0.5094E-34  0.2000E+01
  -0.590  0.2698E-34  0.2698E-34  0.2000E+01
  -0.580  0.1425E-34  0.1425E-34  0.2000E+01
  -0.570  0.7508E-35  0.7509E-35  0.2000E+01
  -0.560  0.3945E-35  0.3945E-35  0.2000E+01
  -0.550  0.2067E-35  0.2067E-35  0.2000E+01
  -0.540  0.1080E-35  0.1080E-35  0.2000E+01
  -0.530  0.5630E-36  0.5631E-36  0.2000E+01
  -0.520  0.2927E-36  0.2927E-36  0.2000E+01
  -0.510  0.1517E-36  0.1517E-36  0.2000E+01
  -0.500  0.7843E-37  0.7844E-37  0.2000E+01
  -0.490  0.4044E-37  0.4044E-37  0.2000E+01
  -0.480  0.2080E-37  0.2080E-37  0.2000E+01
  -0.470  0.1066E-37  0.1067E-37  0.2000E+01
  -0.460  0.5454E-38  0.5455E-38  0.2000E+01
  -0.450  0.2782E-38  0.2782E-38  0.2000E+01
  -0.440  0.1415E-38  0.1415E-38  0.2000E+01
  -0.430  0.7180E-39  0.7181E-39  0.2000E+01
  -0.420  0.3633E-39  0.3633E-39  0.2000E+01
  -0.410  0.1833E-39  0.1833E-39  0.2000E+01
  -0.400  0.9226E-40  0.9227E-40  0.2000E+01
  -0.390  0.4631E-40  0.4631E-40  0.2000E+01
  -0.380  0.2318E-40  0.2318E-40  0.2000E+01
  -0.370  0.1157E-40  0.1157E-40  0.2000E+01
  -0.360  0.5760E-41  0.5761E-41  0.2000E+01
  -0.350  0.2860E-41  0.2860E-41  0.2000E+01
  -0.340  0.1416E-41  0.1416E-41  0.2000E+01
  -0.330  0.6994E-42  0.6995E-42  0.2000E+01
  -0.320  0.3445E-42  0.3445E-42  0.2000E+01
  -0.310  0.1692E-42  0.1692E-42  0.2000E+01
  -0.300  0.8289E-43  0.8290E-43  0.2000E+01
  -0.290  0.4050E-43  0.4050E-43  0.2000E+01
  -0.280  0.1973E-43  0.1973E-43  0.2000E+01
  -0.270  0.9588E-44  0.9588E-44  0.2000E+01
  -0.260  0.4646E-44  0.4647E-44  0.2000E+01
  -0.250  0.2246E-44  0.2246E-44  0.2000E+01
  -0.240  0.1082E-44  0.1082E-44  0.2000E+01
  -0.230  0.5203E-45  0.5204E-45  0.2000E+01
  -0.220  0.2494E-45  0.2495E-45  0.2000E+01
  -0.210  0.1193E-45  0.1193E-45  0.2000E+01
  -0.200  0.5687E-46  0.5687E-46  0.2000E+01
  -0.190  0.2704E-46  0.2705E-46  0.2000E+01
  -0.180  0.1283E-46  0.1283E-46  0.2000E+01
  -0.170  0.6067E-47  0.6067E-47  0.2000E+01
  -0.160  0.2862E-47  0.2862E-47  0.2000E+01
  -0.150  0.1346E-47  0.1346E-47  0.2000E+01
  -0.140  0.6317E-48  0.6317E-48  0.2000E+01
  -0.130  0.2956E-48  0.2956E-48  0.2000E+01
  -0.120  0.1379E-48  0.1379E-48  0.2000E+01
  -0.110  0.6419E-49  0.6420E-49  0.2000E+01
  -0.100  0.2979E-49  0.2980E-49  0.2000E+01
  -0.090  0.1379E-49  0.1379E-49  0.2000E+01
  -0.080  0.6367E-50  0.6367E-50  0.2000E+01
  -0.070  0.2931E-50  0.2932E-50  0.2000E+01
  -0.060  0.1346E-50  0.1346E-50  0.2000E+01
  -0.050  0.6163E-51  0.6164E-51  0.2000E+01
  -0.040  0.2815E-51  0.2815E-51  0.2000E+01
  -0.030  0.1282E-51  0.1282E-51  0.2000E+01
  -0.020  0.5823E-52  0.5824E-52  0.2000E+01
  -0.010  0.2638E-52  0.2638E-52  0.2000E+01
   0.000  0.1192E-52  0.1192E-52  0.2000E+01
   0.010  0.5370E-53  0.5371E-53  0.2000E+01
   0.020  0.2413E-53  0.2413E-53  0.2000E+01
   0.030  0.1081E-53  0.1082E-53  0.2000E+01
   0.040  0.4833E-54  0.4834E-54  0.2000E+01
   0.050  0.2154E-54  0.2155E-54  0.2000E+01
   0.060  0.9577E-55  0.9578E-55  0.2000E+01
   0.070  0.4246E-55  0.4246E-55  0.2000E+01
   0.080  0.1877E-55  0.1877E-55  0.2000E+01
   0.090  0.8278E-56  0.8278E-56  0.2000E+01
   0.100  0.3640E-56  0.3640E-56  0.2000E+01
   0.110  0.1596E-56  0.1597E-56  0.2000E+01
   0.120  0.6983E-57  0.6984E-57  0.2000E+01
   0.130  0.3046E-57  0.3046E-57  0.2000E+01
   0.140  0.1325E-57  0.1325E-57  0.2000E+01
   0.150  0.5749E-58  0.5750E-58  0.2000E+01
   0.160  0.2488E-58  0.2488E-58  0.2000E+01
   0.170  0.1074E-58  0.1074E-58  0.2000E+01
   0.180  0.4620E-59  0.4621E-59  0.2000E+01
   0.190  0.1983E-59  0.1983E-59  0.2000E+01
   0.200  0.8488E-60  0.8489E-60  0.2000E+01
   0.210  0.3624E-60  0.3624E-60  0.2000E+01
   0.220  0.1543E-60  0.1543E-60  0.2000E+01
   0.230  0.6550E-61  0.6551E-61  0.2000E+01
   0.240  0.2774E-61  0.2774E-61  0.2000E+01
   0.250  0.1171E-61  0.1171E-61  0.2000E+01
   0.260  0.4934E-62  0.4934E-62  0.2000E+01
   0.270  0.2072E-62  0.2072E-62  0.2000E+01
   0.280  0.8681E-63  0.8682E-63  0.2000E+01
   0.290  0.3627E-63  0.3627E-63  0.2000E+01
   0.300  0.1511E-63  0.1511E-63  0.2000E+01
   0.310  0.6279E-64  0.6279E-64  0.2000E+01
   0.320  0.2602E-64  0.2602E-64  0.2000E+01
   0.330  0.1075E-64  0.1075E-64  0.2000E+01
   0.340  0.4432E-65  0.4433E-65  0.2000E+01
   0.350  0.1822E-65  0.1822E-65  0.2000E+01
   0.360  0.7469E-66  0.7470E-66  0.2000E+01
   0.370  0.3054E-66  0.3054E-66  0.2000E+01
   0.380  0.1245E-66  0.1245E-66  0.2000E+01
   0.390  0.5063E-67  0.5064E-67  0.2000E+01
   0.400  0.2053E-67  0.2054E-67  0.2000E+01
   0.410  0.8305E-68  0.8306E-68  0.2000E+01
   0.420  0.3350E-68  0.3350E-68  0.2000E+01
   0.430  0.1348E-68  0.1348E-68  0.2000E+01
   0.440  0.5407E-69  0.5407E-69  0.2000E+01
   0.450  0.2163E-69  0.2164E-69  0.2000E+01
   0.460  0.8633E-70  0.8633E-70  0.2000E+01
   0.470  0.3435E-70  0.3436E-70  0.2000E+01
   0.480  0.1363E-70  0.1364E-70  0.2000E+01
   0.490  0.5397E-71  0.5397E-71  0.2000E+01
   0.500  0.2130E-71  0.2131E-71  0.2000E+01
   0.510  0.8387E-72  0.8388E-72  0.2000E+01
   0.520  0.3293E-72  0.3293E-72  0.2000E+01
   0.530  0.1289E-72  0.1290E-72  0.2000E+01
   0.540  0.5035E-73  0.5036E-73  0.2000E+01
   0.550  0.1961E-73  0.1961E-73  0.2000E+01
   0.560  0.7616E-74  0.7617E-74  0.2000E+01
   0.570  0.2950E-74  0.2951E-74  0.2000E+01
   0.580  0.1140E-74  0.1140E-74  0.2000E+01
   0.590  0.4391E-75  0.4391E-75  0.2000E+01
   0.600  0.1687E-75  0.1687E-75  0.2000E+01
   0.610  0.6465E-76  0.6466E-76  0.2000E+01
   0.620  0.2471E-76  0.2471E-76  0.2000E+01
   0.630  0.9417E-77  0.9418E-77  0.2000E+01
   0.640  0.3579E-77  0.3580E-77  0.2000E+01
   0.650  0.1357E-77  0.1357E-77  0.2000E+01
   0.660  0.5130E-78  0.5130E-78  0.2000E+01
   0.670  0.1934E-78  0.1934E-78  0.2000E+01
   0.680  0.7273E-79  0.7273E-79  0.2000E+01
   0.690  0.2727E-79  0.2728E-79  0.2000E+01
   0.700  0.1020E-79  0.1020E-79  0.2000E+01
   0.710  0.3804E-80  0.3805E-80  0.2000E+01
   0.720  0.1415E-80  0.1415E-80  0.2000E+01
   0.730  0.5251E-81  0.5251E-81  0.2000E+01
   0.740  0.1943E-81  0.1943E-81  0.2000E+01
   0.750  0.7175E-82  0.7176E-82  0.2000E+01
   0.760  0.2646E-82  0.2646E-82  0.2000E+01
   0.770  0.9765E-83  0.9766E-83  0.2000E+01
   0.780  0.3628E-83  0.3629E-83  0.2000E+01
   0.790  0.1379E-83  0.1379E-83  0.2000E+01
   0.800  0.5567E-84  0.5568E-84  0.2000E+01
   0.810  0.2570E-84  0.2570E-84  0.2000E+01
   0.820  0.1483E-84  0.1483E-84  0.2000E+01
   0.830  0.1097E-84  0.1097E-84  0.2000E+01
   0.840  0.9797E-85  0.9797E-85  0.2000E+01
   0.850  0.1003E-84  0.1003E-84  0.2000E+01
   0.860  0.1192E-84  0.1192E-84  0.2000E+01
   0.870  0.1764E-84  0.1764E-84  0.2000E+01
   0.880  0.3367E-84  0.3367E-84  0.2000E+01
   0.890  0.7804E-84  0.7804E-84  0.2000E+01
   0.900  0.2004E-83  0.2003E-83  0.2000E+01
   0.910  0.5365E-83  0.5365E-83  0.2000E+01
   0.920  0.1458E-82  0.1458E-82  0.2000E+01
   0.930  0.3976E-82  0.3976E-82  0.2000E+01
   0.940  0.1084E-81  0.1084E-81  0.2000E+01
   0.950  0.2951E-81  0.2950E-81  0.2000E+01
   0.960  0.8012E-81  0.8011E-81  0.2000E+01
   0.970  0.2170E-80  0.2170E-80  0.2000E+01
   0.980  0.5860E-80  0.5860E-80  0.2000E+01
   0.990  0.1579E-79  0.1579E-79  0.2000E+01
   1.000  0.4241E-79  0.4241E-79  0.2000E+01
   1.010  0.1136E-78  0.1136E-78  0.2000E+01
   1.020  0.3037E-78  0.3036E-78  0.2000E+01
   1.030  0.8092E-78  0.8092E-78  0.2000E+01
   1.040  0.2151E-77  0.2151E-77  0.2000E+01
   1.050  0.5701E-77  0.5701E-77  0.2000E+01
   1.060  0.1507E-76  0.1507E-76  0.2000E+01
   1.070  0.3974E-76  0.3973E-76  0.2000E+01
   1.080  0.1045E-75  0.1045E-75  0.2000E+01
   1.090  0.2740E-75  0.2740E-75  0.2000E+01
   1.100  0.7166E-75  0.7165E-75  0.2000E+01
   1.110  0.1869E-74  0.1869E-74  0.2000E+01
   1.120  0.4862E-74  0.4861E-74  0.2000E+01
   1.130  0.1261E-73  0.1261E-73  0.2000E+01
   1.140  0.3263E-73  0.3263E-73  0.2000E+01
   1.150  0.8421E-73  0.8420E-73  0.2000E+01
   1.160  0.2167E-72  0.2167E-72  0.2000E+01
   1.170  0.5562E-72  0.5561E-72  0.2000E+01
   1.180  0.1424E-71  0.1423E-71  0.2000E+01
   1.190  0.3634E-71  0.3634E-71  0.2000E+01
   1.200  0.9252E-71  0.9252E-71  0.2000E+01
   1.210  0.2349E-70  0.2349E-70  0.2000E+01
   1.220  0.5949E-70  0.5948E-70  0.2000E+01
   1.230  0.1502E-69  0.1502E-69  0.2000E+01
   1.240  0.3784E-69  0.3784E-69  0.2000E+01
   1.250  0.9505E-69  0.9505E-69  0.2000E+01
   1.260  0.2381E-68  0.2381E-68  0.2000E+01
   1.270  0.5950E-68  0.5949E-68  0.2000E+01
   1.280  0.1483E-67  0.1482E-67  0.2000E+01
   1.290  0.3684E-67  0.3684E-67  0.2000E+01
   1.300  0.9131E-67  0.9130E-67  0.2000E+01
   1.310  0.2257E-66  0.2257E-66  0.2000E+01
   1.320  0.5564E-66  0.5563E-66  0.2000E+01
   1.330  0.1368E-65  0.1368E-65  0.2000E+01
   1.340  0.3354E-65  0.3354E-65  0.2000E+01
   1.350  0.8201E-65  0.8201E-65  0.2000E+01
   1.360  0.2000E-64  0.2000E-64  0.2000E+01
   1.370  0.4865E-64  0.4864E-64  0.2000E+01
   1.380  0.1180E-63  0.1180E-63  0.2000E+01
   1.390  0.2855E-63  0.2855E-63  0.2000E+01
   1.400  0.6888E-63  0.6887E-63  0.2000E+01
   1.410  0.1657E-62  0.1657E-62  0.2000E+01
   1.420  0.3977E-62  0.3977E-62  0.2000E+01
   1.430  0.9519E-62  0.9518E-62  0.2000E+01
   1.440  0.2272E-61  0.2272E-61  0.2000E+01
   1.450  0.5409E-61  0.5408E-61  0.2000E+01
   1.460  0.1284E-60  0.1284E-60  0.2000E+01
   1.470  0.3040E-60  0.3040E-60  0.2000E+01
   1.480  0.7180E-60  0.7179E-60  0.2000E+01
   1.490  0.1691E-59  0.1691E-59  0.2000E+01
   1.500  0.3972E-59  0.3971E-59  0.2000E+01
   1.510  0.9303E-59  0.9303E-59  0.2000E+01
   1.520  0.2173E-58  0.2173E-58  0.2000E+01
   1.530  0.5064E-58  0.5064E-58  0.2000E+01
   1.540  0.1177E-57  0.1177E-57  0.2000E+01
   1.550  0.2727E-57  0.2727E-57  0.2000E+01
   1.560  0.6303E-57  0.6302E-57  0.2000E+01
   1.570  0.1453E-56  0.1453E-56  0.2000E+01
   1.580  0.3340E-56  0.3339E-56  0.2000E+01
   1.590  0.7657E-56  0.7656E-56  0.2000E+01
   1.600  0.1751E-55  0.1751E-55  0.2000E+01
   1.610  0.3992E-55  0.3992E-55  0.2000E+01
   1.620  0.9080E-55  0.9080E-55  0.2000E+01
   1.630  0.2060E-54  0.2059E-54  0.2000E+01
   1.640  0.4659E-54  0.4659E-54  0.2000E+01
   1.650  0.1051E-53  0.1051E-53  0.2000E+01
   1.660  0.2365E-53  0.2365E-53  0.2000E+01
   1.670  0.5307E-53  0.5307E-53  0.2000E+01
   1.680  0.1188E-52  0.1188E-52  0.2000E+01
   1.690  0.2651E-52  0.2651E-52  0.2000E+01
   1.700  0.5901E-52  0.5900E-52  0.2000E+01
   1.710  0.1310E-51  0.1310E-51  0.2000E+01
   1.720  0.2900E-51  0.2900E-51  0.2000E+01
   1.730  0.6405E-51  0.6404E-51  0.2000E+01
   1.740  0.1410E-50  0.1410E-50  0.2000E+01
   1.750  0.3098E-50  0.3098E-50  0.2000E+01
   1.760  0.6786E-50  0.6785E-50  0.2000E+01
   1.770  0.1482E-49  0.1482E-49  0.2000E+01
   1.780  0.3230E-49  0.3229E-49  0.2000E+01
   1.790  0.7018E-49  0.7017E-49  0.2000E+01
   1.800  0.1521E-48  0.1521E-48  0.2000E+01
   1.810  0.3287E-48  0.3287E-48  0.2000E+01
   1.820  0.7085E-48  0.7084E-48  0.2000E+01
   1.830  0.1523E-47  0.1523E-47  0.2000E+01
   1.840  0.3265E-47  0.3265E-47  0.2000E+01
   1.850  0.6982E-47  0.6981E-47  0.2000E+01
   1.860  0.1489E-46  0.1489E-46  0.2000E+01
   1.870  0.3166E-46  0.3166E-46  0.2000E+01
   1.880  0.6716E-46  0.6716E-46  0.2000E+01
   1.890  0.1421E-45  0.1421E-45  0.2000E+01
   1.900  0.2997E-45  0.2997E-45  0.2000E+01
   1.910  0.6307E-45  0.6306E-45  0.2000E+01
   1.920  0.1323E-44  0.1323E-44  0.2000E+01
   1.930  0.2770E-44  0.2770E-44  0.2000E+01
   1.940  0.5781E-44  0.5781E-44  0.2000E+01
   1.950  0.1203E-43  0.1203E-43  0.2000E+01
   1.960  0.2498E-43  0.2498E-43  0.2000E+01
   1.970  0.5173E-43  0.5173E-43  0.2000E+01
   1.980  0.1068E-42  0.1068E-42  0.2000E+01
   1.990  0.2200E-42  0.2200E-42  0.2000E+01
   2.000  0.4518E-42  0.4518E-42  0.2000E+01
   2.010  0.9256E-42  0.9255E-42  0.2000E+01
   2.020  0.1891E-41  0.1891E-41  0.2000E+01
   2.030  0.3853E-41  0.3853E-41  0.2000E+01
   2.040  0.7829E-41  0.7829E-41  0.2000E+01
   2.050  0.1587E-40  0.1587E-40  0.2000E+01
   2.060  0.3207E-40  0.3207E-40  0.2000E+01
   2.070  0.6464E-40  0.6464E-40  0.2000E+01
   2.080  0.1300E-39  0.1300E-39  0.2000E+01
   2.090  0.2606E-39  0.2606E-39  0.2000E+01
   2.100  0.5211E-39  0.5210E-39  0.2000E+01
   2.110  0.1039E-38  0.1039E-38  0.2000E+01
   2.120  0.2067E-38  0.2067E-38  0.2000E+01
   2.130  0.4100E-38  0.4100E-38  0.2000E+01
   2.140  0.8111E-38  0.8111E-38  0.2000E+01
   2.150  0.1600E-37  0.1600E-37  0.2000E+01
   2.160  0.3149E-37  0.3149E-37  0.2000E+01
   2.170  0.6180E-37  0.6180E-37  0.2000E+01
   2.180  0.1210E-36  0.1210E-36  0.2000E+01
   2.190  0.2361E-36  0.2361E-36  0.2000E+01
   2.200  0.4597E-36  0.4597E-36  0.2000E+01
   2.210  0.8926E-36  0.8926E-36  0.2000E+01
   2.220  0.1729E-35  0.1728E-35  0.2000E+01
   2.230  0.3338E-35  0.3338E-35  0.2000E+01
   2.240  0.6430E-35  0.6429E-35  0.2000E+01
   2.250  0.1235E-34  0.1235E-34  0.2000E+01
   2.260  0.2366E-34  0.2366E-34  0.2000E+01
   2.270  0.4521E-34  0.4521E-34  0.2000E+01
   2.280  0.8616E-34  0.8616E-34  0.2000E+01
   2.290  0.1638E-33  0.1637E-33  0.2000E+01
   2.300  0.3104E-33  0.3104E-33  0.2000E+01
   2.310  0.5868E-33  0.5867E-33  0.2000E+01
   2.320  0.1106E-32  0.1106E-32  0.2000E+01
   2.330  0.2080E-32  0.2080E-32  0.2000E+01
   2.340  0.3901E-32  0.3901E-32  0.2000E+01
   2.350  0.7295E-32  0.7295E-32  0.2000E+01
   2.360  0.1361E-31  0.1361E-31  0.2000E+01
   2.370  0.2532E-31  0.2531E-31  0.2000E+01
   2.380  0.4697E-31  0.4697E-31  0.2000E+01
   2.390  0.8691E-31  0.8691E-31  0.2000E+01
   2.400  0.1604E-30  0.1604E-30  0.2000E+01
   2.410  0.2952E-30  0.2952E-30  0.2000E+01
   2.420  0.5419E-30  0.5419E-30  0.2000E+01
   2.430  0.9921E-30  0.9920E-30  0.2000E+01
   2.440  0.1811E-29  0.1811E-29  0.2000E+01
   2.450  0.3299E-29  0.3298E-29  0.2000E+01
   2.460  0.5991E-29  0.5990E-29  0.2000E+01
   2.470  0.1085E-28  0.1085E-28  0.2000E+01
   2.480  0.1960E-28  0.1960E-28  0.2000E+01
   2.490  0.3532E-28  0.3531E-28  0.2000E+01
   2.500  0.6346E-28  0.6345E-28  0.2000E+01
   2.510  0.1137E-27  0.1137E-27  0.2000E+01
   2.520  0.2032E-27  0.2032E-27  0.2000E+01
   2.530  0.3623E-27  0.3623E-27  0.2000E+01
   2.540  0.6441E-27  0.6440E-27  0.2000E+01
   2.550  0.1142E-26  0.1142E-26  0.2000E+01
   2.560  0.2019E-26  0.2019E-26  0.2000E+01
   2.570  0.3561E-26  0.3561E-26  0.2000E+01
   2.580  0.6264E-26  0.6264E-26  0.2000E+01
   2.590  0.1099E-25  0.1099E-25  0.2000E+01
   2.600  0.1922E-25  0.1922E-25  0.2000E+01
   2.610  0.3354E-25  0.3354E-25  0.2000E+01
   2.620  0.5838E-25  0.5837E-25  0.2000E+01
   2.630  0.1013E-24  0.1013E-24  0.2000E+01
   2.640  0.1754E-24  0.1754E-24  0.2000E+01
   2.650  0.3028E-24  0.3028E-24  0.2000E+01
   2.660  0.5213E-24  0.5213E-24  0.2000E+01
   2.670  0.8952E-24  0.8952E-24  0.2000E+01
   2.680  0.1533E-23  0.1533E-23  0.2000E+01
   2.690  0.2619E-23  0.2619E-23  0.2000E+01
   2.700  0.4461E-23  0.4461E-23  0.2000E+01
   2.710  0.7580E-23  0.7579E-23  0.2000E+01
   2.720  0.1284E-22  0.1284E-22  0.2000E+01
   2.730  0.2171E-22  0.2171E-22  0.2000E+01
   2.740  0.3659E-22  0.3658E-22  0.2000E+01
   2.750  0.6150E-22  0.6150E-22  0.2000E+01
   2.760  0.1031E-21  0.1031E-21  0.2000E+01
   2.770  0.1724E-21  0.1724E-21  0.2000E+01
   2.780  0.2875E-21  0.2875E-21  0.2000E+01
   2.790  0.4782E-21  0.4782E-21  0.2000E+01
   2.800  0.7933E-21  0.7933E-21  0.2000E+01
   2.810  0.1312E-20  0.1312E-20  0.2000E+01
   2.820  0.2166E-20  0.2165E-20  0.2000E+01
   2.830  0.3564E-20  0.3564E-20  0.2000E+01
   2.840  0.5849E-20  0.5849E-20  0.2000E+01
   2.850  0.9575E-20  0.9574E-20  0.2000E+01
   2.860  0.1563E-19  0.1563E-19  0.2000E+01
   2.870  0.2545E-19  0.2545E-19  0.2000E+01
   2.880  0.4133E-19  0.4133E-19  0.2000E+01
   2.890  0.6694E-19  0.6694E-19  0.2000E+01
   2.900  0.1081E-18  0.1081E-18  0.2000E+01
   2.910  0.1742E-18  0.1742E-18  0.2000E+01
   2.920  0.2799E-18  0.2799E-18  0.2000E+01
   2.930  0.4486E-18  0.4485E-18  0.2000E+01
   2.940  0.7169E-18  0.7169E-18  0.2000E+01
   2.950  0.1143E-17  0.1143E-17  0.2000E+01
   2.960  0.1817E-17  0.1817E-17  0.2000E+01
   2.970  0.2881E-17  0.2881E-17  0.2000E+01
   2.980  0.4556E-17  0.4555E-17  0.2000E+01
   2.990  0.7185E-17  0.7185E-17  0.2000E+01
   3.000  0.1130E-16  0.1130E-16  0.2000E+01
   3.010  0.1773E-16  0.1773E-16  0.2000E+01
   3.020  0.2775E-16  0.2775E-16  0.2000E+01
   3.030  0.4330E-16  0.4330E-16  0.2000E+01
   3.040  0.6740E-16  0.6739E-16  0.2000E+01
   3.050  0.1046E-15  0.1046E-15  0.2000E+01
   3.060  0.1620E-15  0.1620E-15  0.2000E+01
   3.070  0.2501E-15  0.2501E-15  0.2000E+01
   3.080  0.3852E-15  0.3852E-15  0.2000E+01
   3.090  0.5917E-15  0.5916E-15  0.2000E+01
   3.100  0.9064E-15  0.9064E-15  0.2000E+01
   3.110  0.1385E-14  0.1385E-14  0.2000E+01
   3.120  0.2110E-14  0.2110E-14  0.2000E+01
   3.130  0.3207E-14  0.3207E-14  0.2000E+01
   3.140  0.4862E-14  0.4862E-14  0.2000E+01
   3.150  0.7350E-14  0.7350E-14  0.2000E+01
   3.160  0.1108E-13  0.1108E-13  0.2000E+01
   3.170  0.1667E-13  0.1667E-13  0.2000E+01
   3.180  0.2500E-13  0.2500E-13  0.2000E+01
   3.190  0.3740E-13  0.3740E-13  0.2000E+01
   3.200  0.5580E-13  0.5579E-13  0.2000E+01
   3.210  0.8303E-13  0.8302E-13  0.2000E+01
   3.220  0.1232E-12  0.1232E-12  0.2000E+01
   3.230  0.1824E-12  0.1824E-12  0.2000E+01
   3.240  0.2693E-12  0.2693E-12  0.2000E+01
   3.250  0.3965E-12  0.3965E-12  0.2000E+01
   3.260  0.5823E-12  0.5823E-12  0.2000E+01
   3.270  0.8529E-12  0.8529E-12  0.2000E+01
   3.280  0.1246E-11  0.1246E-11  0.2000E+01
   3.290  0.1815E-11  0.1815E-11  0.2000E+01
   3.300  0.2638E-11  0.2638E-11  0.2000E+01
   3.310  0.3823E-11  0.3823E-11  0.2000E+01
   3.320  0.5527E-11  0.5527E-11  0.2000E+01
   3.330  0.7968E-11  0.7968E-11  0.2000E+01
   3.340  0.1146E-10  0.1146E-10  0.2000E+01
   3.350  0.1643E-10  0.1643E-10  0.2000E+01
   3.360  0.2351E-10  0.2350E-10  0.2000E+01
   3.370  0.3353E-10  0.3353E-10  0.2000E+01
   3.380  0.4772E-10  0.4772E-10  0.2000E+01
   3.390  0.6772E-10  0.6772E-10  0.2000E+01
   3.400  0.9585E-10  0.9585E-10  0.2000E+01
   3.410  0.1353E-09  0.1353E-09  0.2000E+01
   3.420  0.1905E-09  0.1905E-09  0.2000E+01
   3.430  0.2676E-09  0.2676E-09  0.2000E+01
   3.440  0.3748E-09  0.3748E-09  0.2000E+01
   3.450  0.5236E-09  0.5236E-09  0.2000E+01
   3.460  0.7295E-09  0.7295E-09  0.2000E+01
   3.470  0.1014E-08  0.1014E-08  0.2000E+01
   3.480  0.1405E-08  0.1405E-08  0.2000E+01
   3.490  0.1943E-08  0.1943E-08  0.2000E+01
   3.500  0.2678E-08  0.2678E-08  0.2000E+01
   3.510  0.3683E-08  0.3683E-08  0.2000E+01
   3.520  0.5052E-08  0.5052E-08  0.2000E+01
   3.530  0.6912E-08  0.6912E-08  0.2000E+01
   3.540  0.9431E-08  0.9431E-08  0.2000E+01
   3.550  0.1283E-07  0.1283E-07  0.2000E+01
   3.560  0.1742E-07  0.1742E-07  0.2000E+01
   3.570  0.2358E-07  0.2358E-07  0.2000E+01
   3.580  0.3184E-07  0.3184E-07  0.2000E+01
   3.590  0.4289E-07  0.4289E-07  0.2000E+01
   3.600  0.5761E-07  0.5761E-07  0.2000E+01
   3.610  0.7718E-07  0.7718E-07  0.2000E+01
   3.620  0.1031E-06  0.1031E-06  0.2000E+01
   3.630  0.1374E-06  0.1374E-06  0.2000E+01
   3.640  0.1827E-06  0.1827E-06  0.2000E+01
   3.650  0.2422E-06  0.2422E-06  0.2000E+01
   3.660  0.3203E-06  0.3203E-06  0.2000E+01
   3.670  0.4225E-06  0.4225E-06  0.2000E+01
   3.680  0.5558E-06  0.5558E-06  0.2000E+01
   3.690  0.7292E-06  0.7292E-06  0.2000E+01
   3.700  0.9543E-06  0.9543E-06  0.2000E+01
   3.710  0.1246E-05  0.1246E-05  0.2000E+01
   3.720  0.1622E-05  0.1622E-05  0.2000E+01
   3.730  0.2106E-05  0.2106E-05  0.2000E+01
   3.740  0.2727E-05  0.2727E-05  0.2000E+01
   3.750  0.3523E-05  0.3523E-05  0.2000E+01
   3.760  0.4539E-05  0.4539E-05  0.2000E+01
   3.770  0.5833E-05  0.5833E-05  0.2000E+01
   3.780  0.7477E-05  0.7477E-05  0.2000E+01
   3.790  0.9559E-05  0.9558E-05  0.2000E+01
   3.800  0.1219E-04  0.1219E-04  0.2000E+01
   3.810  0.1550E-04  0.1550E-04  0.2000E+01
   3.820  0.1966E-04  0.1966E-04  0.2000E+01
   3.830  0.2488E-04  0.2488E-04  0.2000E+01
   3.840  0.3140E-04  0.3140E-04  0.2000E+01
   3.850  0.3952E-04  0.3952E-04  0.2000E+01
   3.860  0.4962E-04  0.4962E-04  0.2000E+01
   3.870  0.6214E-04  0.6214E-04  0.2000E+01
   3.880  0.7761E-04  0.7761E-04  0.2000E+01
   3.890  0.9668E-04  0.9668E-04  0.2000E+01
   3.900  0.1201E-03  0.1201E-03  0.2000E+01
   3.910  0.1489E-03  0.1489E-03  0.2000E+01
   3.920  0.1841E-03  0.1841E-03  0.2000E+01
   3.930  0.2269E-03  0.2269E-03  0.2000E+01
   3.940  0.2791E-03  0.2791E-03  0.2000E+01
   3.950  0.3424E-03  0.3424E-03  0.2000E+01
   3.960  0.4189E-03  0.4189E-03  0.2000E+01
   3.970  0.5112E-03  0.5112E-03  0.2000E+01
   3.980  0.6223E-03  0.6223E-03  0.2000E+01
   3.990  0.7555E-03  0.7555E-03  0.2000E+01
   4.000  0.9150E-03  0.9149E-03  0.2000E+01
   4.010  0.1105E-02  0.1105E-02  0.2000E+01
   4.020  0.1332E-02  0.1332E-02  0.2000E+01
   4.030  0.1600E-02  0.1600E-02  0.2000E+01
   4.040  0.1918E-02  0.1918E-02  0.2000E+01
   4.050  0.2293E-02  0.2293E-02  0.2000E+01
   4.060  0.2735E-02  0.2735E-02  0.2000E+01
   4.070  0.3253E-02  0.3253E-02  0.2000E+01
   4.080  0.3860E-02  0.3860E-02  0.2000E+01
   4.090  0.4568E-02  0.4568E-02  0.2001E+01
   4.100  0.5392E-02  0.5392E-02  0.2001E+01
   4.110  0.6349E-02  0.6349E-02  0.2001E+01
   4.120  0.7457E-02  0.7457E-02  0.2001E+01
   4.130  0.8736E-02  0.8736E-02  0.2001E+01
   4.140  0.1021E-01  0.1021E-01  0.2001E+01
   4.150  0.1190E-01  0.1190E-01  0.2002E+01
   4.160  0.1383E-01  0.1383E-01  0.2002E+01
   4.170  0.1604E-01  0.1604E-01  0.2002E+01
   4.180  0.1856E-01  0.1856E-01  0.2003E+01
   4.190  0.2141E-01  0.2141E-01  0.2003E+01
   4.200  0.2465E-01  0.2465E-01  0.2003E+01
   4.210  0.2830E-01  0.2830E-01  0.2004E+01
   4.220  0.3240E-01  0.3240E-01  0.2005E+01
   4.230  0.3702E-01  0.3702E-01  0.2005E+01
   4.240  0.4218E-01  0.4218E-01  0.2006E+01
   4.250  0.4795E-01  0.4794E-01  0.2007E+01
   4.260  0.5436E-01  0.5436E-01  0.2008E+01
   4.270  0.6148E-01  0.6148E-01  0.2010E+01
   4.280  0.6937E-01  0.6937E-01  0.2011E+01
   4.290  0.7807E-01  0.7807E-01  0.2012E+01
   4.300  0.8765E-01  0.8765E-01  0.2014E+01
   4.310  0.9816E-01  0.9815E-01  0.2016E+01
   4.320  0.1097E+00  0.1097E+00  0.2018E+01
   4.330  0.1222E+00  0.1222E+00  0.2021E+01
   4.340  0.1359E+00  0.1359E+00  0.2024E+01
   4.350  0.1507E+00  0.1507E+00  0.2027E+01
   4.360  0.1667E+00  0.1667E+00  0.2030E+01
   4.370  0.1840E+00  0.1840E+00  0.2034E+01
   4.380  0.2026E+00  0.2026E+00  0.2038E+01
   4.390  0.2225E+00  0.2225E+00  0.2042E+01
   4.400  0.2438E+00  0.2438E+00  0.2047E+01
   4.410  0.2665E+00  0.2665E+00  0.2052E+01
   4.420  0.2907E+00  0.2907E+00  0.2058E+01
   4.430  0.3163E+00  0.3163E+00  0.2064E+01
   4.440  0.3433E+00  0.3433E+00  0.2071E+01
   4.450  0.3718E+00  0.3718E+00  0.2079E+01
   4.460  0.4017E+00  0.4017E+00  0.2087E+01
   4.470  0.4331E+00  0.4331E+00  0.2095E+01
   4.480  0.4658E+00  0.4658E+00  0.2105E+01
   4.490  0.4999E+00  0.4999E+00  0.2115E+01
   4.500  0.5352E+00  0.5352E+00  0.2125E+01
   4.510  0.5718E+00  0.5718E+00  0.2137E+01
   4.520  0.6095E+00  0.6095E+00  0.2149E+01
   4.530  0.6482E+00  0.6482E+00  0.2162E+01
   4.540  0.6880E+00  0.6880E+00  0.2176E+01
   4.550  0.7286E+00  0.7286E+00  0.2190E+01
   4.560  0.7699E+00  0.7699E+00  0.2206E+01
   4.570  0.8119E+00  0.8119E+00  0.2222E+01
   4.580  0.8543E+00  0.8543E+00  0.2239E+01
   4.590  0.8971E+00  0.8971E+00  0.2257E+01
   4.600  0.9402E+00  0.9402E+00  0.2276E+01
   4.610  0.9832E+00  0.9832E+00  0.2295E+01
   4.620  0.1026E+01  0.1026E+01  0.2316E+01
   4.630  0.1069E+01  0.1069E+01  0.2337E+01
   4.640  0.1111E+01  0.1111E+01  0.2360E+01
   4.650  0.1153E+01  0.1153E+01  0.2383E+01
   4.660  0.1194E+01  0.1194E+01  0.2407E+01
   4.670  0.1235E+01  0.1235E+01  0.2431E+01
   4.680  0.1274E+01  0.1274E+01  0.2457E+01
   4.690  0.1312E+01  0.1312E+01  0.2483E+01
   4.700  0.1349E+01  0.1349E+01  0.2510E+01
   4.710  0.1384E+01  0.1384E+01  0.2538E+01
   4.720  0.1418E+01  0.1418E+01  0.2566E+01
   4.730  0.1450E+01  0.1450E+01  0.2595E+01
   4.740  0.1480E+01  0.1480E+01  0.2625E+01
   4.750  0.1509E+01  0.1509E+01  0.2655E+01
   4.760  0.1535E+01  0.1535E+01  0.2685E+01
   4.770  0.1560E+01  0.1560E+01  0.2717E+01
   4.780  0.1582E+01  0.1582E+01  0.2748E+01
   4.790  0.1603E+01  0.1603E+01  0.2780E+01
   4.800  0.1621E+01  0.1621E+01  0.2813E+01
   4.810  0.1636E+01  0.1636E+01  0.2846E+01
   4.820  0.1650E+01  0.1650E+01  0.2879E+01
   4.830  0.1661E+01  0.1661E+01  0.2912E+01
   4.840  0.1670E+01  0.1670E+01  0.2945E+01
   4.850  0.1676E+01  0.1676E+01  0.2979E+01
   4.860  0.1680E+01  0.1680E+01  0.3012E+01
   4.870  0.1682E+01  0.1682E+01  0.3046E+01
   4.880  0.1682E+01  0.1682E+01  0.3080E+01
   4.890  0.1679E+01  0.1679E+01  0.3113E+01
   4.900  0.1675E+01  0.1675E+01  0.3147E+01
   4.910  0.1668E+01  0.1668E+01  0.3180E+01
   4.920  0.1660E+01  0.1660E+01  0.3213E+01
   4.930  0.1649E+01  0.1649E+01  0.3246E+01
   4.940  0.1637E+01  0.1637E+01  0.3279E+01
   4.950  0.1624E+01  0.1624E+01  0.3311E+01
   4.960  0.1608E+01  0.1608E+01  0.3344E+01
   4.970  0.1591E+01  0.1591E+01  0.3375E+01
   4.980  0.1574E+01  0.1574E+01  0.3407E+01
   4.990  0.1554E+01  0.1554E+01  0.3438E+01
   5.000  0.1534E+01  0.1534E+01  0.3469E+01
   5.010  0.1513E+01  0.1513E+01  0.3499E+01
   5.020  0.1492E+01  0.1492E+01  0.3529E+01
   5.030  0.1470E+01  0.1470E+01  0.3558E+01
   5.040  0.1447E+01  0.1447E+01  0.3587E+01
   5.050  0.1425E+01  0.1425E+01  0.3616E+01
   5.060  0.1402E+01  0.1402E+01  0.3644E+01
   5.070  0.1380E+01  0.1380E+01  0.3671E+01
   5.080  0.1358E+01  0.1358E+01  0.3698E+01
   5.090  0.1336E+01  0.1336E+01  0.3725E+01
   5.100  0.1315E+01  0.1315E+01  0.3751E+01
   5.110  0.1295E+01  0.1295E+01  0.3777E+01
   5.120  0.1275E+01  0.1275E+01  0.3803E+01
   5.130  0.1257E+01  0.1257E+01  0.3828E+01
   5.140  0.1239E+01  0.1239E+01  0.3853E+01
   5.150  0.1223E+01  0.1223E+01  0.3877E+01
   5.160  0.1208E+01  0.1208E+01  0.3901E+01
   5.170  0.1194E+01  0.1194E+01  0.3925E+01
   5.180  0.1182E+01  0.1182E+01  0.3949E+01
   5.190  0.1170E+01  0.1170E+01  0.3972E+01
   5.200  0.1161E+01  0.1161E+01  0.3995E+01
   5.210  0.1152E+01  0.1152E+01  0.4018E+01
   5.220  0.1145E+01  0.1145E+01  0.4041E+01
   5.230  0.1140E+01  0.1140E+01  0.4064E+01
   5.240  0.1135E+01  0.1135E+01  0.4087E+01
   5.250  0.1132E+01  0.1132E+01  0.4109E+01
   5.260  0.1129E+01  0.1129E+01  0.4132E+01
   5.270  0.1128E+01  0.1128E+01  0.4155E+01
   5.280  0.1127E+01  0.1127E+01  0.4177E+01
   5.290  0.1127E+01  0.1127E+01  0.4200E+01
   5.300  0.1128E+01  0.1128E+01  0.4222E+01
   5.310  0.1129E+01  0.1129E+01  0.4245E+01
   5.320  0.1131E+01  0.1131E+01  0.4267E+01
   5.330  0.1133E+01  0.1133E+01  0.4290E+01
   5.340  0.1134E+01  0.1134E+01  0.4313E+01
   5.350  0.1136E+01  0.1136E+01  0.4336E+01
   5.360  0.1137E+01  0.1137E+01  0.4358E+01
   5.370  0.1139E+01  0.1139E+01  0.4381E+01
   5.380  0.1139E+01  0.1139E+01  0.4404E+01
   5.390  0.1139E+01  0.1139E+01  0.4427E+01
   5.400  0.1139E+01  0.1139E+01  0.4449E+01
   5.410  0.1138E+01  0.1138E+01  0.4472E+01
   5.420  0.1136E+01  0.1136E+01  0.4495E+01
   5.430  0.1133E+01  0.1133E+01  0.4518E+01
   5.440  0.1129E+01  0.1129E+01  0.4540E+01
   5.450  0.1125E+01  0.1125E+01  0.4563E+01
   5.460  0.1120E+01  0.1120E+01  0.4585E+01
   5.470  0.1113E+01  0.1113E+01  0.4607E+01
   5.480  0.1106E+01  0.1106E+01  0.4629E+01
   5.490  0.1099E+01  0.1099E+01  0.4651E+01
   5.500  0.1090E+01  0.1090E+01  0.4673E+01
   5.510  0.1081E+01  0.1081E+01  0.4695E+01
   5.520  0.1071E+01  0.1071E+01  0.4716E+01
   5.530  0.1061E+01  0.1061E+01  0.4737E+01
   5.540  0.1051E+01  0.1051E+01  0.4758E+01
   5.550  0.1040E+01  0.1040E+01  0.4779E+01
   5.560  0.1029E+01  0.1029E+01  0.4800E+01
   5.570  0.1017E+01  0.1017E+01  0.4820E+01
   5.580  0.1006E+01  0.1006E+01  0.4840E+01
   5.590  0.9954E+00  0.9954E+00  0.4860E+01
   5.600  0.9847E+00  0.9847E+00  0.4880E+01
   5.610  0.9743E+00  0.9743E+00  0.4899E+01
   5.620  0.9644E+00  0.9644E+00  0.4919E+01
   5.630  0.9550E+00  0.9550E+00  0.4938E+01
   5.640  0.9461E+00  0.9461E+00  0.4957E+01
   5.650  0.9380E+00  0.9380E+00  0.4975E+01
   5.660  0.9306E+00  0.9306E+00  0.4994E+01
   5.670  0.9239E+00  0.9239E+00  0.5013E+01
   5.680  0.9181E+00  0.9181E+00  0.5031E+01
   5.690  0.9131E+00  0.9131E+00  0.5049E+01
   5.700  0.9090E+00  0.9090E+00  0.5067E+01
   5.710  0.9058E+00  0.9058E+00  0.5085E+01
   5.720  0.9034E+00  0.9034E+00  0.5104E+01
   5.730  0.9019E+00  0.9019E+00  0.5122E+01
   5.740  0.9011E+00  0.9011E+00  0.5140E+01
   5.750  0.9012E+00  0.9012E+00  0.5158E+01
   5.760  0.9020E+00  0.9020E+00  0.5176E+01
   5.770  0.9034E+00  0.9034E+00  0.5194E+01
   5.780  0.9055E+00  0.9055E+00  0.5212E+01
   5.790  0.9081E+00  0.9081E+00  0.5230E+01
   5.800  0.9112E+00  0.9112E+00  0.5248E+01
   5.810  0.9147E+00  0.9147E+00  0.5267E+01
   5.820  0.9185E+00  0.9185E+00  0.5285E+01
   5.830  0.9225E+00  0.9225E+00  0.5303E+01
   5.840  0.9266E+00  0.9266E+00  0.5322E+01
   5.850  0.9308E+00  0.9308E+00  0.5340E+01
   5.860  0.9350E+00  0.9350E+00  0.5359E+01
   5.870  0.9390E+00  0.9390E+00  0.5378E+01
   5.880  0.9428E+00  0.9428E+00  0.5397E+01
   5.890  0.9464E+00  0.9464E+00  0.5416E+01
   5.900  0.9496E+00  0.9496E+00  0.5435E+01
   5.910  0.9524E+00  0.9524E+00  0.5454E+01
   5.920  0.9548E+00  0.9548E+00  0.5473E+01
   5.930  0.9565E+00  0.9565E+00  0.5492E+01
   5.940  0.9578E+00  0.9578E+00  0.5511E+01
   5.950  0.9584E+00  0.9584E+00  0.5530E+01
   5.960  0.9583E+00  0.9583E+00  0.5550E+01
   5.970  0.9576E+00  0.9576E+00  0.5569E+01
   5.980  0.9562E+00  0.9562E+00  0.5588E+01
   5.990  0.9541E+00  0.9541E+00  0.5607E+01
   6.000  0.9513E+00  0.9513E+00  0.5626E+01
   6.010  0.9478E+00  0.9478E+00  0.5645E+01
   6.020  0.9436E+00  0.9436E+00  0.5664E+01
   6.030  0.9389E+00  0.9389E+00  0.5682E+01
   6.040  0.9335E+00  0.9335E+00  0.5701E+01
   6.050  0.9276E+00  0.9276E+00  0.5720E+01
   6.060  0.9211E+00  0.9211E+00  0.5738E+01
   6.070  0.9143E+00  0.9143E+00  0.5756E+01
   6.080  0.9070E+00  0.9070E+00  0.5775E+01
   6.090  0.8994E+00  0.8994E+00  0.5793E+01
   6.100  0.8916E+00  0.8916E+00  0.5810E+01
   6.110  0.8837E+00  0.8837E+00  0.5828E+01
   6.120  0.8756E+00  0.8756E+00  0.5846E+01
   6.130  0.8676E+00  0.8676E+00  0.5863E+01
   6.140  0.8596E+00  0.8596E+00  0.5880E+01
   6.150  0.8518E+00  0.8518E+00  0.5897E+01
   6.160  0.8443E+00  0.8443E+00  0.5914E+01
   6.170  0.8371E+00  0.8371E+00  0.5931E+01
   6.180  0.8303E+00  0.8303E+00  0.5947E+01
   6.190  0.8240E+00  0.8240E+00  0.5964E+01
   6.200  0.8183E+00  0.8183E+00  0.5980E+01
   6.210  0.8133E+00  0.8133E+00  0.5997E+01
   6.220  0.8090E+00  0.8090E+00  0.6013E+01
   6.230  0.8054E+00  0.8054E+00  0.6029E+01
   6.240  0.8027E+00  0.8027E+00  0.6045E+01
   6.250  0.8008E+00  0.8008E+00  0.6061E+01
   6.260  0.7999E+00  0.7999E+00  0.6077E+01
   6.270  0.7999E+00  0.7999E+00  0.6093E+01
   6.280  0.8009E+00  0.8009E+00  0.6109E+01
   6.290  0.8029E+00  0.8029E+00  0.6125E+01
   6.300  0.8059E+00  0.8059E+00  0.6141E+01
   6.310  0.8099E+00  0.8099E+00  0.6157E+01
   6.320  0.8148E+00  0.8148E+00  0.6174E+01
   6.330  0.8207E+00  0.8207E+00  0.6190E+01
   6.340  0.8276E+00  0.8276E+00  0.6207E+01
   6.350  0.8353E+00  0.8353E+00  0.6223E+01
   6.360  0.8439E+00  0.8439E+00  0.6240E+01
   6.370  0.8534E+00  0.8534E+00  0.6257E+01
   6.380  0.8635E+00  0.8635E+00  0.6274E+01
   6.390  0.8743E+00  0.8743E+00  0.6292E+01
   6.400  0.8858E+00  0.8858E+00  0.6310E+01
   6.410  0.8978E+00  0.8978E+00  0.6328E+01
   6.420  0.9102E+00  0.9102E+00  0.6346E+01
   6.430  0.9230E+00  0.9230E+00  0.6364E+01
   6.440  0.9361E+00  0.9361E+00  0.6383E+01
   6.450  0.9493E+00  0.9493E+00  0.6402E+01
   6.460  0.9627E+00  0.9627E+00  0.6421E+01
   6.470  0.9761E+00  0.9761E+00  0.6441E+01
   6.480  0.9894E+00  0.9894E+00  0.6461E+01
   6.490  0.1002E+01  0.1002E+01  0.6481E+01
   6.500  0.1015E+01  0.1015E+01  0.6501E+01
   6.510  0.1028E+01  0.1028E+01  0.6521E+01
   6.520  0.1040E+01  0.1040E+01  0.6542E+01
   6.530  0.1051E+01  0.1051E+01  0.6563E+01
   6.540  0.1062E+01  0.1062E+01  0.6585E+01
   6.550  0.1073E+01  0.1073E+01  0.6606E+01
   6.560  0.1082E+01  0.1082E+01  0.6628E+01
   6.570  0.1091E+01  0.1091E+01  0.6649E+01
   6.580  0.1099E+01  0.1099E+01  0.6671E+01
   6.590  0.1106E+01  0.1106E+01  0.6694E+01
   6.600  0.1113E+01  0.1113E+01  0.6716E+01
   6.610  0.1118E+01  0.1118E+01  0.6738E+01
   6.620  0.1123E+01  0.1123E+01  0.6761E+01
   6.630  0.1126E+01  0.1126E+01  0.6783E+01
   6.640  0.1129E+01  0.1129E+01  0.6806E+01
   6.650  0.1131E+01  0.1131E+01  0.6828E+01
   6.660  0.1132E+01  0.1132E+01  0.6851E+01
   6.670  0.1132E+01  0.1132E+01  0.6874E+01
   6.680  0.1131E+01  0.1131E+01  0.6896E+01
   6.690  0.1129E+01  0.1129E+01  0.6919E+01
   6.700  0.1126E+01  0.1126E+01  0.6941E+01
   6.710  0.1123E+01  0.1123E+01  0.6964E+01
   6.720  0.1119E+01  0.1119E+01  0.6986E+01
   6.730  0.1114E+01  0.1114E+01  0.7008E+01
   6.740  0.1109E+01  0.1109E+01  0.7031E+01
   6.750  0.1103E+01  0.1103E+01  0.7053E+01
   6.760  0.1097E+01  0.1097E+01  0.7075E+01
   6.770  0.1090E+01  0.1090E+01  0.7096E+01
   6.780  0.1083E+01  0.1083E+01  0.7118E+01
   6.790  0.1076E+01  0.1076E+01  0.7140E+01
   6.800  0.1068E+01  0.1068E+01  0.7161E+01
   6.810  0.1060E+01  0.1060E+01  0.7182E+01
   6.820  0.1051E+01  0.1051E+01  0.7203E+01
   6.830  0.1043E+01  0.1043E+01  0.7224E+01
   6.840  0.1034E+01  0.1034E+01  0.7245E+01
   6.850  0.1025E+01  0.1025E+01  0.7265E+01
   6.860  0.1017E+01  0.1017E+01  0.7286E+01
   6.870  0.1008E+01  0.1008E+01  0.7306E+01
   6.880  0.9990E+00  0.9990E+00  0.7326E+01
   6.890  0.9903E+00  0.9903E+00  0.7346E+01
   6.900  0.9817E+00  0.9817E+00  0.7365E+01
   6.910  0.9731E+00  0.9731E+00  0.7385E+01
   6.920  0.9647E+00  0.9647E+00  0.7404E+01
   6.930  0.9565E+00  0.9565E+00  0.7423E+01
   6.940  0.9484E+00  0.9484E+00  0.7442E+01
   6.950  0.9406E+00  0.9406E+00  0.7461E+01
   6.960  0.9330E+00  0.9330E+00  0.7479E+01
   6.970  0.9256E+00  0.9256E+00  0.7498E+01
   6.980  0.9185E+00  0.9185E+00  0.7516E+01
   6.990  0.9116E+00  0.9116E+00  0.7535E+01
   7.000  0.9051E+00  0.9051E+00  0.7553E+01
   7.010  0.8989E+00  0.8989E+00  0.7571E+01
   7.020  0.8931E+00  0.8931E+00  0.7589E+01
   7.030  0.8876E+00  0.8876E+00  0.7606E+01
   7.040  0.8825E+00  0.8825E+00  0.7624E+01
   7.050  0.8778E+00  0.8778E+00  0.7641E+01
   7.060  0.8735E+00  0.8735E+00  0.7659E+01
   7.070  0.8696E+00  0.8696E+00  0.7676E+01
   7.080  0.8662E+00  0.8662E+00  0.7694E+01
   7.090  0.8631E+00  0.8631E+00  0.7711E+01
   7.100  0.8605E+00  0.8605E+00  0.7728E+01
   7.110  0.8584E+00  0.8584E+00  0.7745E+01
   7.120  0.8567E+00  0.8567E+00  0.7762E+01
   7.130  0.8554E+00  0.8554E+00  0.7780E+01
   7.140  0.8545E+00  0.8545E+00  0.7797E+01
   7.150  0.8541E+00  0.8541E+00  0.7814E+01
   7.160  0.8540E+00  0.8540E+00  0.7831E+01
   7.170  0.8543E+00  0.8543E+00  0.7848E+01
   7.180  0.8550E+00  0.8550E+00  0.7865E+01
   7.190  0.8560E+00  0.8560E+00  0.7882E+01
   7.200  0.8573E+00  0.8573E+00  0.7899E+01
   7.210  0.8588E+00  0.8588E+00  0.7916E+01
   7.220  0.8605E+00  0.8605E+00  0.7934E+01
   7.230  0.8625E+00  0.8625E+00  0.7951E+01
   7.240  0.8646E+00  0.8646E+00  0.7968E+01
   7.250  0.8667E+00  0.8667E+00  0.7986E+01
   7.260  0.8690E+00  0.8690E+00  0.8003E+01
   7.270  0.8712E+00  0.8712E+00  0.8020E+01
   7.280  0.8734E+00  0.8734E+00  0.8038E+01
   7.290  0.8756E+00  0.8756E+00  0.8055E+01
   7.300  0.8776E+00  0.8776E+00  0.8073E+01
   7.310  0.8794E+00  0.8794E+00  0.8090E+01
   7.320  0.8811E+00  0.8811E+00  0.8108E+01
   7.330  0.8826E+00  0.8826E+00  0.8126E+01
   7.340  0.8838E+00  0.8838E+00  0.8143E+01
   7.350  0.8847E+00  0.8847E+00  0.8161E+01
   7.360  0.8852E+00  0.8852E+00  0.8179E+01
   7.370  0.8855E+00  0.8855E+00  0.8197E+01
   7.380  0.8854E+00  0.8854E+00  0.8214E+01
   7.390  0.8850E+00  0.8850E+00  0.8232E+01
   7.400  0.8842E+00  0.8842E+00  0.8250E+01
   7.410  0.8831E+00  0.8831E+00  0.8267E+01
   7.420  0.8816E+00  0.8816E+00  0.8285E+01
   7.430  0.8797E+00  0.8797E+00  0.8302E+01
   7.440  0.8775E+00  0.8775E+00  0.8320E+01
   7.450  0.8750E+00  0.8750E+00  0.8338E+01
   7.460  0.8722E+00  0.8722E+00  0.8355E+01
   7.470  0.8691E+00  0.8691E+00  0.8372E+01
   7.480  0.8657E+00  0.8657E+00  0.8390E+01
   7.490  0.8622E+00  0.8622E+00  0.8407E+01
   7.500  0.8584E+00  0.8584E+00  0.8424E+01
   7.510  0.8545E+00  0.8545E+00  0.8441E+01
   7.520  0.8505E+00  0.8505E+00  0.8458E+01
   7.530  0.8463E+00  0.8463E+00  0.8475E+01
   7.540  0.8421E+00  0.8421E+00  0.8492E+01
   7.550  0.8379E+00  0.8379E+00  0.8509E+01
   7.560  0.8337E+00  0.8337E+00  0.8525E+01
   7.570  0.8295E+00  0.8295E+00  0.8542E+01
   7.580  0.8254E+00  0.8254E+00  0.8558E+01
   7.590  0.8215E+00  0.8215E+00  0.8575E+01
   7.600  0.8176E+00  0.8176E+00  0.8591E+01
   7.610  0.8139E+00  0.8139E+00  0.8608E+01
   7.620  0.8104E+00  0.8104E+00  0.8624E+01
   7.630  0.8071E+00  0.8071E+00  0.8640E+01
   7.640  0.8040E+00  0.8040E+00  0.8656E+01
   7.650  0.8012E+00  0.8012E+00  0.8672E+01
   7.660  0.7986E+00  0.7986E+00  0.8688E+01
   7.670  0.7962E+00  0.7962E+00  0.8704E+01
   7.680  0.7942E+00  0.7942E+00  0.8720E+01
   7.690  0.7924E+00  0.7924E+00  0.8736E+01
   7.700  0.7909E+00  0.7909E+00  0.8751E+01
   7.710  0.7897E+00  0.7897E+00  0.8767E+01
   7.720  0.7888E+00  0.7888E+00  0.8783E+01
   7.730  0.7882E+00  0.7882E+00  0.8799E+01
   7.740  0.7878E+00  0.7878E+00  0.8815E+01
   7.750  0.7878E+00  0.7878E+00  0.8830E+01
   7.760  0.7880E+00  0.7880E+00  0.8846E+01
   7.770  0.7885E+00  0.7885E+00  0.8862E+01
   7.780  0.7893E+00  0.7893E+00  0.8878E+01
   7.790  0.7903E+00  0.7903E+00  0.8893E+01
   7.800  0.7916E+00  0.7916E+00  0.8909E+01
   7.810  0.7931E+00  0.7931E+00  0.8925E+01
   7.820  0.7949E+00  0.7949E+00  0.8941E+01
   7.830  0.7970E+00  0.7970E+00  0.8957E+01
   7.840  0.7992E+00  0.7992E+00  0.8973E+01
   7.850  0.8017E+00  0.8017E+00  0.8989E+01
   7.860  0.8044E+00  0.8044E+00  0.9005E+01
   7.870  0.8074E+00  0.8074E+00  0.9021E+01
   7.880  0.8105E+00  0.8105E+00  0.9037E+01
   7.890  0.8139E+00  0.8139E+00  0.9054E+01
   7.900  0.8175E+00  0.8175E+00  0.9070E+01
   7.910  0.8212E+00  0.8212E+00  0.9086E+01
   7.920  0.8252E+00  0.8252E+00  0.9103E+01
   7.930  0.8294E+00  0.8294E+00  0.9120E+01
   7.940  0.8337E+00  0.8337E+00  0.9136E+01
   7.950  0.8382E+00  0.8382E+00  0.9153E+01
   7.960  0.8429E+00  0.8429E+00  0.9170E+01
   7.970  0.8478E+00  0.8478E+00  0.9187E+01
   7.980  0.8528E+00  0.8528E+00  0.9204E+01
   7.990  0.8579E+00  0.8579E+00  0.9221E+01
   8.000  0.8632E+00  0.8632E+00  0.9238E+01
   8.010  0.8686E+00  0.8686E+00  0.9256E+01
   8.020  0.8741E+00  0.8741E+00  0.9273E+01
   8.030  0.8797E+00  0.8797E+00  0.9291E+01
   8.040  0.8853E+00  0.8853E+00  0.9308E+01
   8.050  0.8910E+00  0.8910E+00  0.9326E+01
   8.060  0.8968E+00  0.8968E+00  0.9344E+01
   8.070  0.9025E+00  0.9025E+00  0.9362E+01
   8.080  0.9083E+00  0.9083E+00  0.9380E+01
   8.090  0.9140E+00  0.9140E+00  0.9399E+01
   8.100  0.9197E+00  0.9197E+00  0.9417E+01
   8.110  0.9253E+00  0.9253E+00  0.9436E+01
   8.120  0.9309E+00  0.9309E+00  0.9454E+01
   8.130  0.9364E+00  0.9364E+00  0.9473E+01
   8.140  0.9418E+00  0.9418E+00  0.9492E+01
   8.150  0.9471E+00  0.9471E+00  0.9511E+01
   8.160  0.9523E+00  0.9523E+00  0.9530E+01
   8.170  0.9574E+00  0.9574E+00  0.9549E+01
   8.180  0.9624E+00  0.9624E+00  0.9568E+01
   8.190  0.9674E+00  0.9674E+00  0.9588E+01
   8.200  0.9723E+00  0.9723E+00  0.9607E+01
   8.210  0.9771E+00  0.9771E+00  0.9626E+01
   8.220  0.9819E+00  0.9819E+00  0.9646E+01
   8.230  0.9867E+00  0.9867E+00  0.9666E+01
   8.240  0.9916E+00  0.9916E+00  0.9686E+01
   8.250  0.9966E+00  0.9966E+00  0.9706E+01
   8.260  0.1002E+01  0.1002E+01  0.9726E+01
   8.270  0.1007E+01  0.1007E+01  0.9746E+01
   8.280  0.1013E+01  0.1013E+01  0.9766E+01
   8.290  0.1019E+01  0.1019E+01  0.9786E+01
   8.300  0.1025E+01  0.1025E+01  0.9807E+01
   8.310  0.1032E+01  0.1032E+01  0.9828E+01
   8.320  0.1039E+01  0.1039E+01  0.9848E+01
   8.330  0.1048E+01  0.1048E+01  0.9869E+01
   8.340  0.1057E+01  0.1057E+01  0.9890E+01
   8.350  0.1066E+01  0.1066E+01  0.9912E+01
   8.360  0.1077E+01  0.1077E+01  0.9933E+01
   8.370  0.1089E+01  0.1089E+01  0.9955E+01
   8.380  0.1102E+01  0.1102E+01  0.9977E+01
   8.390  0.1116E+01  0.1116E+01  0.9999E+01
   8.400  0.1131E+01  0.1131E+01  0.1002E+02
   8.410  0.1148E+01  0.1148E+01  0.1005E+02
   8.420  0.1166E+01  0.1166E+01  0.1007E+02
   8.430  0.1186E+01  0.1186E+01  0.1009E+02
   8.440  0.1207E+01  0.1207E+01  0.1012E+02
   8.450  0.1231E+01  0.1231E+01  0.1014E+02
   8.460  0.1255E+01  0.1255E+01  0.1017E+02
   8.470  0.1282E+01  0.1282E+01  0.1019E+02
   8.480  0.1311E+01  0.1311E+01  0.1022E+02
   8.490  0.1341E+01  0.1341E+01  0.1024E+02
   8.500  0.1373E+01  0.1373E+01  0.1027E+02
   8.510  0.1407E+01  0.1407E+01  0.1030E+02
   8.520  0.1444E+01  0.1444E+01  0.1033E+02
   8.530  0.1482E+01  0.1482E+01  0.1036E+02
   8.540  0.1522E+01  0.1522E+01  0.1039E+02
   8.550  0.1564E+01  0.1564E+01  0.1042E+02
   8.560  0.1608E+01  0.1608E+01  0.1045E+02
   8.570  0.1654E+01  0.1654E+01  0.1049E+02
   8.580  0.1702E+01  0.1702E+01  0.1052E+02
   8.590  0.1751E+01  0.1751E+01  0.1055E+02
   8.600  0.1803E+01  0.1803E+01  0.1059E+02
   8.610  0.1856E+01  0.1856E+01  0.1063E+02
   8.620  0.1912E+01  0.1912E+01  0.1067E+02
   8.630  0.1969E+01  0.1969E+01  0.1071E+02
   8.640  0.2027E+01  0.2027E+01  0.1075E+02
   8.650  0.2088E+01  0.2088E+01  0.1079E+02
   8.660  0.2150E+01  0.2150E+01  0.1083E+02
   8.670  0.2214E+01  0.2214E+01  0.1088E+02
   8.680  0.2279E+01  0.2279E+01  0.1092E+02
   8.690  0.2346E+01  0.2346E+01  0.1097E+02
   8.700  0.2414E+01  0.2414E+01  0.1102E+02
   8.710  0.2484E+01  0.2484E+01  0.1107E+02
   8.720  0.2556E+01  0.2556E+01  0.1112E+02
   8.730  0.2628E+01  0.2628E+01  0.1117E+02
   8.740  0.2703E+01  0.2703E+01  0.1122E+02
   8.750  0.2778E+01  0.2778E+01  0.1128E+02
   8.760  0.2855E+01  0.2855E+01  0.1134E+02
   8.770  0.2934E+01  0.2934E+01  0.1139E+02
   8.780  0.3013E+01  0.3013E+01  0.1145E+02
   8.790  0.3094E+01  0.3094E+01  0.1152E+02
   8.800  0.3176E+01  0.3176E+01  0.1158E+02
   8.810  0.3259E+01  0.3259E+01  0.1165E+02
   8.820  0.3343E+01  0.3343E+01  0.1171E+02
   8.830  0.3428E+01  0.3428E+01  0.1178E+02
   8.840  0.3514E+01  0.3514E+01  0.1185E+02
   8.850  0.3600E+01  0.3600E+01  0.1192E+02
   8.860  0.3688E+01  0.3688E+01  0.1200E+02
   8.870  0.3776E+01  0.3776E+01  0.1207E+02
   8.880  0.3864E+01  0.3864E+01  0.1215E+02
   8.890  0.3953E+01  0.3953E+01  0.1223E+02
   8.900  0.4042E+01  0.4042E+01  0.1231E+02
   8.910  0.4131E+01  0.4130E+01  0.1239E+02
   8.920  0.4219E+01  0.4219E+01  0.1248E+02
   8.930  0.4307E+01  0.4307E+01  0.1256E+02
   8.940  0.4395E+01  0.4395E+01  0.1265E+02
   8.950  0.4482E+01  0.4482E+01  0.1274E+02
   8.960  0.4568E+01  0.4568E+01  0.1283E+02
   8.970  0.4652E+01  0.4652E+01  0.1292E+02
   8.980  0.4735E+01  0.4735E+01  0.1302E+02
   8.990  0.4816E+01  0.4816E+01  0.1312E+02
   9.000  0.4896E+01  0.4896E+01  0.1321E+02
   9.010  0.4972E+01  0.4972E+01  0.1331E+02
   9.020  0.5047E+01  0.5047E+01  0.1341E+02
   9.030  0.5118E+01  0.5118E+01  0.1352E+02
   9.040  0.5186E+01  0.5186E+01  0.1362E+02
   9.050  0.5251E+01  0.5251E+01  0.1373E+02
   9.060  0.5313E+01  0.5313E+01  0.1383E+02
   9.070  0.5371E+01  0.5371E+01  0.1394E+02
   9.080  0.5424E+01  0.5424E+01  0.1405E+02
   9.090  0.5474E+01  0.5474E+01  0.1416E+02
   9.100  0.5519E+01  0.5519E+01  0.1427E+02
   9.110  0.5559E+01  0.5559E+01  0.1438E+02
   9.120  0.5595E+01  0.5595E+01  0.1449E+02
   9.130  0.5626E+01  0.5626E+01  0.1460E+02
   9.140  0.5652E+01  0.5652E+01  0.1472E+02
   9.150  0.5673E+01  0.5673E+01  0.1483E+02
   9.160  0.5689E+01  0.5689E+01  0.1494E+02
   9.170  0.5700E+01  0.5700E+01  0.1506E+02
   9.180  0.5706E+01  0.5706E+01  0.1517E+02
   9.190  0.5707E+01  0.5707E+01  0.1529E+02
   9.200  0.5704E+01  0.5704E+01  0.1540E+02
   9.210  0.5696E+01  0.5696E+01  0.1551E+02
   9.220  0.5683E+01  0.5683E+01  0.1563E+02
   9.230  0.5666E+01  0.5666E+01  0.1574E+02
   9.240  0.5646E+01  0.5646E+01  0.1585E+02
   9.250  0.5621E+01  0.5621E+01  0.1597E+02
   9.260  0.5592E+01  0.5592E+01  0.1608E+02
   9.270  0.5561E+01  0.5561E+01  0.1619E+02
   9.280  0.5526E+01  0.5526E+01  0.1630E+02
   9.290  0.5489E+01  0.5489E+01  0.1641E+02
   9.300  0.5449E+01  0.5449E+01  0.1652E+02
   9.310  0.5408E+01  0.5408E+01  0.1663E+02
   9.320  0.5365E+01  0.5365E+01  0.1673E+02
   9.330  0.5321E+01  0.5321E+01  0.1684E+02
   9.340  0.5276E+01  0.5276E+01  0.1695E+02
   9.350  0.5230E+01  0.5230E+01  0.1705E+02
   9.360  0.5185E+01  0.5185E+01  0.1715E+02
   9.370  0.5140E+01  0.5140E+01  0.1726E+02
   9.380  0.5095E+01  0.5095E+01  0.1736E+02
   9.390  0.5052E+01  0.5052E+01  0.1746E+02
   9.400  0.5010E+01  0.5010E+01  0.1756E+02
   9.410  0.4970E+01  0.4970E+01  0.1766E+02
   9.420  0.4931E+01  0.4931E+01  0.1776E+02
   9.430  0.4895E+01  0.4895E+01  0.1786E+02
   9.440  0.4862E+01  0.4862E+01  0.1795E+02
   9.450  0.4832E+01  0.4832E+01  0.1805E+02
   9.460  0.4804E+01  0.4804E+01  0.1815E+02
   9.470  0.4780E+01  0.4780E+01  0.1824E+02
   9.480  0.4759E+01  0.4759E+01  0.1834E+02
   9.490  0.4741E+01  0.4741E+01  0.1843E+02
   9.500  0.4728E+01  0.4728E+01  0.1853E+02
   9.510  0.4718E+01  0.4718E+01  0.1862E+02
   9.520  0.4711E+01  0.4711E+01  0.1871E+02
   9.530  0.4708E+01  0.4708E+01  0.1881E+02
   9.540  0.4709E+01  0.4709E+01  0.1890E+02
   9.550  0.4714E+01  0.4714E+01  0.1900E+02
   9.560  0.4722E+01  0.4722E+01  0.1909E+02
   9.570  0.4733E+01  0.4733E+01  0.1919E+02
   9.580  0.4748E+01  0.4748E+01  0.1928E+02
   9.590  0.4766E+01  0.4766E+01  0.1938E+02
   9.600  0.4787E+01  0.4787E+01  0.1947E+02
   9.610  0.4810E+01  0.4810E+01  0.1957E+02
   9.620  0.4836E+01  0.4836E+01  0.1966E+02
   9.630  0.4865E+01  0.4865E+01  0.1976E+02
   9.640  0.4895E+01  0.4895E+01  0.1986E+02
   9.650  0.4927E+01  0.4927E+01  0.1996E+02
   9.660  0.4961E+01  0.4961E+01  0.2006E+02
   9.670  0.4996E+01  0.4996E+01  0.2016E+02
   9.680  0.5031E+01  0.5031E+01  0.2026E+02
   9.690  0.5068E+01  0.5068E+01  0.2036E+02
   9.700  0.5105E+01  0.5105E+01  0.2046E+02
   9.710  0.5142E+01  0.5142E+01  0.2056E+02
   9.720  0.5179E+01  0.5179E+01  0.2067E+02
   9.730  0.5216E+01  0.5216E+01  0.2077E+02
   9.740  0.5253E+01  0.5253E+01  0.2088E+02
   9.750  0.5289E+01  0.5289E+01  0.2098E+02
   9.760  0.5323E+01  0.5323E+01  0.2109E+02
   9.770  0.5357E+01  0.5357E+01  0.2120E+02
   9.780  0.5390E+01  0.5390E+01  0.2130E+02
   9.790  0.5422E+01  0.5422E+01  0.2141E+02
   9.800  0.5452E+01  0.5452E+01  0.2152E+02
   9.810  0.5481E+01  0.5481E+01  0.2163E+02
   9.820  0.5509E+01  0.5509E+01  0.2174E+02
   9.830  0.5535E+01  0.5535E+01  0.2185E+02
   9.840  0.5559E+01  0.5559E+01  0.2196E+02
   9.850  0.5583E+01  0.5583E+01  0.2208E+02
   9.860  0.5605E+01  0.5605E+01  0.2219E+02
   9.870  0.5626E+01  0.5626E+01  0.2230E+02
   9.880  0.5645E+01  0.5645E+01  0.2241E+02
   9.890  0.5664E+01  0.5664E+01  0.2253E+02
   9.900  0.5682E+01  0.5682E+01  0.2264E+02
   9.910  0.5699E+01  0.5699E+01  0.2275E+02
   9.920  0.5716E+01  0.5716E+01  0.2287E+02
   9.930  0.5732E+01  0.5732E+01  0.2298E+02
   9.940  0.5748E+01  0.5748E+01  0.2310E+02
   9.950  0.5764E+01  0.5764E+01  0.2321E+02
   9.960  0.5781E+01  0.5781E+01  0.2333E+02
   9.970  0.5797E+01  0.5797E+01  0.2344E+02
   9.980  0.5814E+01  0.5814E+01  0.2356E+02
   9.990  0.5832E+01  0.5832E+01  0.2368E+02
  10.000  0.5850E+01  0.5850E+01  0.2379E+02
  10.010  0.5870E+01  0.5870E+01  0.2391E+02
  10.020  0.5890E+01  0.5890E+01  0.2403E+02
  10.030  0.5911E+01  0.5911E+01  0.2415E+02
  10.040  0.5934E+01  0.5934E+01  0.2427E+02
  10.050  0.5957E+01  0.5957E+01  0.2439E+02
  10.060  0.5982E+01  0.5982E+01  0.2451E+02
  10.070  0.6008E+01  0.6008E+01  0.2463E+02
  10.080  0.6035E+01  0.6035E+01  0.2475E+02
  10.090  0.6063E+01  0.6063E+01  0.2487E+02
  10.100  0.6091E+01  0.6091E+01  0.2499E+02
  10.110  0.6121E+01  0.6121E+01  0.2511E+02
  10.120  0.6150E+01  0.6150E+01  0.2523E+02
  10.130  0.6180E+01  0.6180E+01  0.2536E+02
  10.140  0.6210E+01  0.6210E+01  0.2548E+02
  10.150  0.6240E+01  0.6240E+01  0.2561E+02
  10.160  0.6270E+01  0.6270E+01  0.2573E+02
  10.170  0.6298E+01  0.6298E+01  0.2586E+02
  10.180  0.6325E+01  0.6325E+01  0.2599E+02
  10.190  0.6351E+01  0.6351E+01  0.2611E+02
  10.200  0.6375E+01  0.6375E+01  0.2624E+02
  10.210  0.6396E+01  0.6396E+01  0.2637E+02
  10.220  0.6415E+01  0.6415E+01  0.2650E+02
  10.230  0.6431E+01  0.6431E+01  0.2662E+02
  10.240  0.6443E+01  0.6443E+01  0.2675E+02
  10.250  0.6452E+01  0.6452E+01  0.2688E+02
  10.260  0.6457E+01  0.6457E+01  0.2701E+02
  10.270  0.6458E+01  0.6458E+01  0.2714E+02
  10.280  0.6454E+01  0.6454E+01  0.2727E+02
  10.290  0.6445E+01  0.6445E+01  0.2740E+02
  10.300  0.6431E+01  0.6431E+01  0.2753E+02
  10.310  0.6412E+01  0.6412E+01  0.2766E+02
  10.320  0.6387E+01  0.6387E+01  0.2778E+02
  10.330  0.6357E+01  0.6357E+01  0.2791E+02
  10.340  0.6322E+01  0.6322E+01  0.2804E+02
  10.350  0.6281E+01  0.6281E+01  0.2816E+02
  10.360  0.6234E+01  0.6234E+01  0.2829E+02
  10.370  0.6182E+01  0.6182E+01  0.2841E+02
  10.380  0.6125E+01  0.6125E+01  0.2853E+02
  10.390  0.6062E+01  0.6062E+01  0.2865E+02
  10.400  0.5995E+01  0.5995E+01  0.2877E+02
  10.410  0.5922E+01  0.5922E+01  0.2889E+02
  10.420  0.5846E+01  0.5846E+01  0.2901E+02
  10.430  0.5765E+01  0.5765E+01  0.2913E+02
  10.440  0.5681E+01  0.5681E+01  0.2924E+02
  10.450  0.5593E+01  0.5593E+01  0.2935E+02
  10.460  0.5502E+01  0.5502E+01  0.2946E+02
  10.470  0.5409E+01  0.5409E+01  0.2957E+02
  10.480  0.5313E+01  0.5313E+01  0.2968E+02
  10.490  0.5216E+01  0.5216E+01  0.2978E+02
  10.500  0.5118E+01  0.5118E+01  0.2988E+02
  10.510  0.5019E+01  0.5019E+01  0.2998E+02
  10.520  0.4919E+01  0.4919E+01  0.3008E+02
  10.530  0.4820E+01  0.4820E+01  0.3018E+02
  10.540  0.4721E+01  0.4721E+01  0.3027E+02
  10.550  0.4624E+01  0.4624E+01  0.3036E+02
  10.560  0.4528E+01  0.4528E+01  0.3045E+02
  10.570  0.4433E+01  0.4433E+01  0.3054E+02
  10.580  0.4341E+01  0.4341E+01  0.3063E+02
  10.590  0.4251E+01  0.4251E+01  0.3072E+02
  10.600  0.4165E+01  0.4165E+01  0.3080E+02
  10.610  0.4081E+01  0.4081E+01  0.3088E+02
  10.620  0.4001E+01  0.4001E+01  0.3096E+02
  10.630  0.3924E+01  0.3924E+01  0.3104E+02
  10.640  0.3852E+01  0.3852E+01  0.3112E+02
  10.650  0.3783E+01  0.3783E+01  0.3119E+02
  10.660  0.3719E+01  0.3719E+01  0.3127E+02
  10.670  0.3659E+01  0.3659E+01  0.3134E+02
  10.680  0.3603E+01  0.3603E+01  0.3141E+02
  10.690  0.3552E+01  0.3552E+01  0.3148E+02
  10.700  0.3505E+01  0.3505E+01  0.3155E+02
  10.710  0.3464E+01  0.3464E+01  0.3162E+02
  10.720  0.3426E+01  0.3426E+01  0.3169E+02
  10.730  0.3394E+01  0.3394E+01  0.3176E+02
  10.740  0.3365E+01  0.3366E+01  0.3182E+02
  10.750  0.3342E+01  0.3342E+01  0.3189E+02
  10.760  0.3323E+01  0.3323E+01  0.3196E+02
  10.770  0.3309E+01  0.3309E+01  0.3202E+02
  10.780  0.3300E+01  0.3300E+01  0.3209E+02
  10.790  0.3295E+01  0.3295E+01  0.3216E+02
  10.800  0.3294E+01  0.3294E+01  0.3222E+02
  10.810  0.3298E+01  0.3298E+01  0.3229E+02
  10.820  0.3307E+01  0.3307E+01  0.3235E+02
  10.830  0.3320E+01  0.3320E+01  0.3242E+02
  10.840  0.3338E+01  0.3338E+01  0.3249E+02
  10.850  0.3361E+01  0.3361E+01  0.3255E+02
  10.860  0.3388E+01  0.3388E+01  0.3262E+02
  10.870  0.3419E+01  0.3419E+01  0.3269E+02
  10.880  0.3456E+01  0.3456E+01  0.3276E+02
  10.890  0.3497E+01  0.3497E+01  0.3283E+02
  10.900  0.3543E+01  0.3543E+01  0.3290E+02
  10.910  0.3595E+01  0.3595E+01  0.3297E+02
  10.920  0.3651E+01  0.3651E+01  0.3305E+02
  10.930  0.3712E+01  0.3712E+01  0.3312E+02
  10.940  0.3779E+01  0.3779E+01  0.3320E+02
  10.950  0.3850E+01  0.3850E+01  0.3327E+02
  10.960  0.3927E+01  0.3927E+01  0.3335E+02
  10.970  0.4010E+01  0.4010E+01  0.3343E+02
  10.980  0.4098E+01  0.4098E+01  0.3351E+02
  10.990  0.4191E+01  0.4191E+01  0.3360E+02
  11.000  0.4289E+01  0.4289E+01  0.3368E+02
  11.010  0.4393E+01  0.4393E+01  0.3377E+02
  11.020  0.4503E+01  0.4503E+01  0.3386E+02
  11.030  0.4617E+01  0.4617E+01  0.3395E+02
  11.040  0.4736E+01  0.4736E+01  0.3405E+02
  11.050  0.4861E+01  0.4861E+01  0.3415E+02
  11.060  0.4990E+01  0.4990E+01  0.3424E+02
  11.070  0.5123E+01  0.5123E+01  0.3435E+02
  11.080  0.5260E+01  0.5260E+01  0.3445E+02
  11.090  0.5402E+01  0.5402E+01  0.3456E+02
  11.100  0.5546E+01  0.5546E+01  0.3467E+02
  11.110  0.5694E+01  0.5694E+01  0.3479E+02
  11.120  0.5844E+01  0.5844E+01  0.3490E+02
  11.130  0.5996E+01  0.5996E+01  0.3502E+02
  11.140  0.6149E+01  0.6149E+01  0.3515E+02
  11.150  0.6303E+01  0.6303E+01  0.3527E+02
  11.160  0.6458E+01  0.6458E+01  0.3540E+02
  11.170  0.6612E+01  0.6612E+01  0.3553E+02
  11.180  0.6765E+01  0.6765E+01  0.3567E+02
  11.190  0.6917E+01  0.6917E+01  0.3581E+02
  11.200  0.7066E+01  0.7066E+01  0.3595E+02
  11.210  0.7212E+01  0.7212E+01  0.3609E+02
  11.220  0.7355E+01  0.7355E+01  0.3624E+02
  11.230  0.7493E+01  0.7493E+01  0.3639E+02
  11.240  0.7627E+01  0.7627E+01  0.3654E+02
  11.250  0.7755E+01  0.7755E+01  0.3670E+02
  11.260  0.7877E+01  0.7877E+01  0.3685E+02
  11.270  0.7992E+01  0.7992E+01  0.3701E+02
  11.280  0.8100E+01  0.8100E+01  0.3718E+02
  11.290  0.8200E+01  0.8200E+01  0.3734E+02
  11.300  0.8293E+01  0.8293E+01  0.3751E+02
  11.310  0.8377E+01  0.8377E+01  0.3767E+02
  11.320  0.8452E+01  0.8452E+01  0.3784E+02
  11.330  0.8518E+01  0.8518E+01  0.3801E+02
  11.340  0.8575E+01  0.8575E+01  0.3818E+02
  11.350  0.8622E+01  0.8622E+01  0.3836E+02
  11.360  0.8659E+01  0.8659E+01  0.3853E+02
  11.370  0.8687E+01  0.8687E+01  0.3870E+02
  11.380  0.8706E+01  0.8706E+01  0.3888E+02
  11.390  0.8714E+01  0.8714E+01  0.3905E+02
  11.400  0.8714E+01  0.8714E+01  0.3923E+02
  11.410  0.8703E+01  0.8703E+01  0.3940E+02
  11.420  0.8684E+01  0.8684E+01  0.3957E+02
  11.430  0.8656E+01  0.8656E+01  0.3975E+02
  11.440  0.8618E+01  0.8618E+01  0.3992E+02
  11.450  0.8573E+01  0.8573E+01  0.4009E+02
  11.460  0.8519E+01  0.8519E+01  0.4026E+02
  11.470  0.8458E+01  0.8458E+01  0.4043E+02
  11.480  0.8389E+01  0.8389E+01  0.4060E+02
  11.490  0.8313E+01  0.8313E+01  0.4076E+02
  11.500  0.8231E+01  0.8231E+01  0.4093E+02
  11.510  0.8143E+01  0.8143E+01  0.4109E+02
  11.520  0.8048E+01  0.8048E+01  0.4125E+02
  11.530  0.7949E+01  0.7949E+01  0.4141E+02
  11.540  0.7845E+01  0.7845E+01  0.4157E+02
  11.550  0.7736E+01  0.7736E+01  0.4172E+02
  11.560  0.7623E+01  0.7623E+01  0.4188E+02
  11.570  0.7506E+01  0.7506E+01  0.4203E+02
  11.580  0.7386E+01  0.7386E+01  0.4217E+02
  11.590  0.7264E+01  0.7264E+01  0.4232E+02
  11.600  0.7139E+01  0.7139E+01  0.4246E+02
  11.610  0.7011E+01  0.7011E+01  0.4260E+02
  11.620  0.6882E+01  0.6882E+01  0.4274E+02
  11.630  0.6751E+01  0.6751E+01  0.4287E+02
  11.640  0.6619E+01  0.6619E+01  0.4301E+02
  11.650  0.6486E+01  0.6486E+01  0.4314E+02
  11.660  0.6352E+01  0.6352E+01  0.4326E+02
  11.670  0.6218E+01  0.6218E+01  0.4339E+02
  11.680  0.6083E+01  0.6083E+01  0.4351E+02
  11.690  0.5949E+01  0.5949E+01  0.4363E+02
  11.700  0.5814E+01  0.5814E+01  0.4374E+02
  11.710  0.5680E+01  0.5680E+01  0.4386E+02
  11.720  0.5547E+01  0.5547E+01  0.4397E+02
  11.730  0.5413E+01  0.5413E+01  0.4408E+02
  11.740  0.5281E+01  0.5281E+01  0.4418E+02
  11.750  0.5150E+01  0.5150E+01  0.4429E+02
  11.760  0.5019E+01  0.5019E+01  0.4439E+02
  11.770  0.4890E+01  0.4890E+01  0.4448E+02
  11.780  0.4762E+01  0.4762E+01  0.4458E+02
  11.790  0.4635E+01  0.4635E+01  0.4467E+02
  11.800  0.4509E+01  0.4509E+01  0.4476E+02
  11.810  0.4385E+01  0.4385E+01  0.4485E+02
  11.820  0.4263E+01  0.4263E+01  0.4494E+02
  11.830  0.4142E+01  0.4142E+01  0.4502E+02
  11.840  0.4022E+01  0.4022E+01  0.4510E+02
  11.850  0.3905E+01  0.3905E+01  0.4518E+02
  11.860  0.3789E+01  0.3789E+01  0.4525E+02
  11.870  0.3676E+01  0.3676E+01  0.4533E+02
  11.880  0.3564E+01  0.3564E+01  0.4540E+02
  11.890  0.3454E+01  0.3454E+01  0.4547E+02
  11.900  0.3347E+01  0.3347E+01  0.4553E+02
  11.910  0.3241E+01  0.3241E+01  0.4560E+02
  11.920  0.3138E+01  0.3138E+01  0.4566E+02
  11.930  0.3038E+01  0.3038E+01  0.4572E+02
  11.940  0.2939E+01  0.2939E+01  0.4578E+02
  11.950  0.2843E+01  0.2843E+01  0.4584E+02
  11.960  0.2749E+01  0.2749E+01  0.4589E+02
  11.970  0.2658E+01  0.2658E+01  0.4595E+02
  11.980  0.2570E+01  0.2570E+01  0.4600E+02
  11.990  0.2484E+01  0.2484E+01  0.4605E+02
  12.000  0.2400E+01  0.2400E+01  0.4609E+02
  12.010  0.2319E+01  0.2319E+01  0.4614E+02
  12.020  0.2241E+01  0.2241E+01  0.4619E+02
  12.030  0.2165E+01  0.2165E+01  0.4623E+02
  12.040  0.2092E+01  0.2092E+01  0.4627E+02
  12.050  0.2022E+01  0.2022E+01  0.4631E+02
  12.060  0.1954E+01  0.1954E+01  0.4635E+02
  12.070  0.1889E+01  0.1889E+01  0.4639E+02
  12.080  0.1827E+01  0.1827E+01  0.4643E+02
  12.090  0.1767E+01  0.1767E+01  0.4646E+02
  12.100  0.1709E+01  0.1709E+01  0.4649E+02
  12.110  0.1654E+01  0.1654E+01  0.4653E+02
  12.120  0.1602E+01  0.1602E+01  0.4656E+02
  12.130  0.1551E+01  0.1551E+01  0.4659E+02
  12.140  0.1503E+01  0.1503E+01  0.4662E+02
  12.150  0.1458E+01  0.1458E+01  0.4665E+02
  12.160  0.1414E+01  0.1414E+01  0.4668E+02
  12.170  0.1373E+01  0.1373E+01  0.4671E+02
  12.180  0.1333E+01  0.1333E+01  0.4673E+02
  12.190  0.1296E+01  0.1296E+01  0.4676E+02
  12.200  0.1260E+01  0.1260E+01  0.4678E+02
  12.210  0.1226E+01  0.1226E+01  0.4681E+02
  12.220  0.1194E+01  0.1194E+01  0.4683E+02
  12.230  0.1164E+01  0.1164E+01  0.4686E+02
  12.240  0.1135E+01  0.1135E+01  0.4688E+02
  12.250  0.1108E+01  0.1108E+01  0.4690E+02
  12.260  0.1082E+01  0.1082E+01  0.4692E+02
  12.270  0.1057E+01  0.1057E+01  0.4694E+02
  12.280  0.1034E+01  0.1034E+01  0.4696E+02
  12.290  0.1012E+01  0.1012E+01  0.4698E+02
  12.300  0.9910E+00  0.9910E+00  0.4700E+02
  12.310  0.9713E+00  0.9713E+00  0.4702E+02
  12.320  0.9526E+00  0.9526E+00  0.4704E+02
  12.330  0.9350E+00  0.9350E+00  0.4706E+02
  12.340  0.9182E+00  0.9182E+00  0.4708E+02
  12.350  0.9024E+00  0.9024E+00  0.4710E+02
  12.360  0.8874E+00  0.8874E+00  0.4711E+02
  12.370  0.8733E+00  0.8733E+00  0.4713E+02
  12.380  0.8599E+00  0.8599E+00  0.4715E+02
  12.390  0.8473E+00  0.8473E+00  0.4717E+02
  12.400  0.8353E+00  0.8353E+00  0.4718E+02
  12.410  0.8240E+00  0.8240E+00  0.4720E+02
  12.420  0.8133E+00  0.8133E+00  0.4722E+02
  12.430  0.8032E+00  0.8032E+00  0.4723E+02
  12.440  0.7937E+00  0.7937E+00  0.4725E+02
  12.450  0.7847E+00  0.7847E+00  0.4726E+02
  12.460  0.7763E+00  0.7763E+00  0.4728E+02
  12.470  0.7683E+00  0.7683E+00  0.4729E+02
  12.480  0.7607E+00  0.7607E+00  0.4731E+02
  12.490  0.7536E+00  0.7536E+00  0.4732E+02
  12.500  0.7469E+00  0.7469E+00  0.4734E+02
  12.510  0.7405E+00  0.7405E+00  0.4735E+02
  12.520  0.7345E+00  0.7345E+00  0.4737E+02
  12.530  0.7288E+00  0.7288E+00  0.4738E+02
  12.540  0.7234E+00  0.7234E+00  0.4740E+02
  12.550  0.7183E+00  0.7183E+00  0.4741E+02
  12.560  0.7134E+00  0.7134E+00  0.4743E+02
  12.570  0.7087E+00  0.7087E+00  0.4744E+02
  12.580  0.7042E+00  0.7042E+00  0.4746E+02
  12.590  0.6999E+00  0.6999E+00  0.4747E+02
  12.600  0.6957E+00  0.6957E+00  0.4748E+02
  12.610  0.6917E+00  0.6917E+00  0.4750E+02
  12.620  0.6877E+00  0.6877E+00  0.4751E+02
  12.630  0.6837E+00  0.6837E+00  0.4752E+02
  12.640  0.6799E+00  0.6799E+00  0.4754E+02
  12.650  0.6760E+00  0.6760E+00  0.4755E+02
  12.660  0.6721E+00  0.6721E+00  0.4756E+02
  12.670  0.6682E+00  0.6682E+00  0.4758E+02
  12.680  0.6642E+00  0.6642E+00  0.4759E+02
  12.690  0.6601E+00  0.6601E+00  0.4760E+02
  12.700  0.6559E+00  0.6559E+00  0.4762E+02
  12.710  0.6516E+00  0.6516E+00  0.4763E+02
  12.720  0.6472E+00  0.6472E+00  0.4764E+02
  12.730  0.6426E+00  0.6426E+00  0.4766E+02
  12.740  0.6379E+00  0.6379E+00  0.4767E+02
  12.750  0.6330E+00  0.6330E+00  0.4768E+02
  12.760  0.6279E+00  0.6279E+00  0.4769E+02
  12.770  0.6226E+00  0.6226E+00  0.4771E+02
  12.780  0.6171E+00  0.6171E+00  0.4772E+02
  12.790  0.6114E+00  0.6114E+00  0.4773E+02
  12.800  0.6055E+00  0.6055E+00  0.4774E+02
  12.810  0.5994E+00  0.5994E+00  0.4776E+02
  12.820  0.5930E+00  0.5930E+00  0.4777E+02
  12.830  0.5865E+00  0.5865E+00  0.4778E+02
  12.840  0.5798E+00  0.5798E+00  0.4779E+02
  12.850  0.5729E+00  0.5729E+00  0.4780E+02
  12.860  0.5658E+00  0.5658E+00  0.4781E+02
  12.870  0.5586E+00  0.5586E+00  0.4782E+02
  12.880  0.5512E+00  0.5512E+00  0.4784E+02
  12.890  0.5438E+00  0.5438E+00  0.4785E+02
  12.900  0.5362E+00  0.5362E+00  0.4786E+02
  12.910  0.5285E+00  0.5285E+00  0.4787E+02
  12.920  0.5207E+00  0.5207E+00  0.4788E+02
  12.930  0.5129E+00  0.5129E+00  0.4789E+02
  12.940  0.5051E+00  0.5051E+00  0.4790E+02
  12.950  0.4973E+00  0.4973E+00  0.4791E+02
  12.960  0.4896E+00  0.4896E+00  0.4792E+02
  12.970  0.4818E+00  0.4818E+00  0.4793E+02
  12.980  0.4742E+00  0.4742E+00  0.4794E+02
  12.990  0.4667E+00  0.4667E+00  0.4795E+02
  13.000  0.4592E+00  0.4592E+00  0.4796E+02
  13.010  0.4520E+00  0.4520E+00  0.4797E+02
  13.020  0.4449E+00  0.4449E+00  0.4797E+02
  13.030  0.4380E+00  0.4380E+00  0.4798E+02
  13.040  0.4313E+00  0.4313E+00  0.4799E+02
  13.050  0.4249E+00  0.4249E+00  0.4800E+02
  13.060  0.4187E+00  0.4187E+00  0.4801E+02
  13.070  0.4127E+00  0.4127E+00  0.4802E+02
  13.080  0.4070E+00  0.4070E+00  0.4802E+02
  13.090  0.4017E+00  0.4017E+00  0.4803E+02
  13.100  0.3966E+00  0.3966E+00  0.4804E+02
  13.110  0.3918E+00  0.3918E+00  0.4805E+02
  13.120  0.3873E+00  0.3873E+00  0.4806E+02
  13.130  0.3831E+00  0.3831E+00  0.4806E+02
  13.140  0.3792E+00  0.3792E+00  0.4807E+02
  13.150  0.3756E+00  0.3757E+00  0.4808E+02
  13.160  0.3724E+00  0.3724E+00  0.4809E+02
  13.170  0.3694E+00  0.3694E+00  0.4809E+02
  13.180  0.3667E+00  0.3667E+00  0.4810E+02
  13.190  0.3643E+00  0.3643E+00  0.4811E+02
  13.200  0.3621E+00  0.3621E+00  0.4812E+02
  13.210  0.3602E+00  0.3602E+00  0.4812E+02
  13.220  0.3585E+00  0.3585E+00  0.4813E+02
  13.230  0.3570E+00  0.3570E+00  0.4814E+02
  13.240  0.3557E+00  0.3557E+00  0.4814E+02
  13.250  0.3546E+00  0.3546E+00  0.4815E+02
  13.260  0.3537E+00  0.3537E+00  0.4816E+02
  13.270  0.3529E+00  0.3529E+00  0.4817E+02
  13.280  0.3522E+00  0.3522E+00  0.4817E+02
  13.290  0.3517E+00  0.3517E+00  0.4818E+02
  13.300  0.3512E+00  0.3512E+00  0.4819E+02
  13.310  0.3507E+00  0.3507E+00  0.4819E+02
  13.320  0.3503E+00  0.3503E+00  0.4820E+02
  13.330  0.3500E+00  0.3500E+00  0.4821E+02
  13.340  0.3496E+00  0.3496E+00  0.4821E+02
  13.350  0.3492E+00  0.3492E+00  0.4822E+02
  13.360  0.3488E+00  0.3488E+00  0.4823E+02
  13.370  0.3484E+00  0.3484E+00  0.4824E+02
  13.380  0.3478E+00  0.3478E+00  0.4824E+02
  13.390  0.3472E+00  0.3472E+00  0.4825E+02
  13.400  0.3466E+00  0.3466E+00  0.4826E+02
  13.410  0.3458E+00  0.3458E+00  0.4826E+02
  13.420  0.3449E+00  0.3449E+00  0.4827E+02
  13.430  0.3439E+00  0.3439E+00  0.4828E+02
  13.440  0.3427E+00  0.3427E+00  0.4828E+02
  13.450  0.3415E+00  0.3415E+00  0.4829E+02
  13.460  0.3401E+00  0.3401E+00  0.4830E+02
  13.470  0.3386E+00  0.3386E+00  0.4830E+02
  13.480  0.3369E+00  0.3369E+00  0.4831E+02
  13.490  0.3352E+00  0.3352E+00  0.4832E+02
  13.500  0.3333E+00  0.3333E+00  0.4832E+02
  13.510  0.3313E+00  0.3313E+00  0.4833E+02
  13.520  0.3293E+00  0.3293E+00  0.4834E+02
  13.530  0.3271E+00  0.3271E+00  0.4834E+02
  13.540  0.3249E+00  0.3249E+00  0.4835E+02
  13.550  0.3226E+00  0.3226E+00  0.4836E+02
  13.560  0.3204E+00  0.3204E+00  0.4836E+02
  13.570  0.3181E+00  0.3181E+00  0.4837E+02
  13.580  0.3158E+00  0.3158E+00  0.4838E+02
  13.590  0.3135E+00  0.3135E+00  0.4838E+02
  13.600  0.3113E+00  0.3113E+00  0.4839E+02
  13.610  0.3092E+00  0.3092E+00  0.4840E+02
  13.620  0.3072E+00  0.3072E+00  0.4840E+02
  13.630  0.3054E+00  0.3054E+00  0.4841E+02
  13.640  0.3037E+00  0.3037E+00  0.4841E+02
  13.650  0.3022E+00  0.3022E+00  0.4842E+02
  13.660  0.3009E+00  0.3009E+00  0.4843E+02
  13.670  0.2998E+00  0.2998E+00  0.4843E+02
  13.680  0.2991E+00  0.2991E+00  0.4844E+02
  13.690  0.2986E+00  0.2986E+00  0.4844E+02
  13.700  0.2984E+00  0.2984E+00  0.4845E+02
  13.710  0.2986E+00  0.2986E+00  0.4846E+02
  13.720  0.2991E+00  0.2991E+00  0.4846E+02
  13.730  0.3000E+00  0.3000E+00  0.4847E+02
  13.740  0.3013E+00  0.3013E+00  0.4847E+02
  13.750  0.3030E+00  0.3030E+00  0.4848E+02
  13.760  0.3051E+00  0.3051E+00  0.4849E+02
  13.770  0.3077E+00  0.3077E+00  0.4849E+02
  13.780  0.3107E+00  0.3107E+00  0.4850E+02
  13.790  0.3141E+00  0.3141E+00  0.4850E+02
  13.800  0.3180E+00  0.3180E+00  0.4851E+02
  13.810  0.3223E+00  0.3223E+00  0.4852E+02
  13.820  0.3271E+00  0.3271E+00  0.4852E+02
  13.830  0.3323E+00  0.3323E+00  0.4853E+02
  13.840  0.3379E+00  0.3379E+00  0.4854E+02
  13.850  0.3439E+00  0.3439E+00  0.4854E+02
  13.860  0.3504E+00  0.3504E+00  0.4855E+02
  13.870  0.3572E+00  0.3572E+00  0.4856E+02
  13.880  0.3644E+00  0.3644E+00  0.4857E+02
  13.890  0.3720E+00  0.3720E+00  0.4857E+02
  13.900  0.3799E+00  0.3799E+00  0.4858E+02
  13.910  0.3882E+00  0.3882E+00  0.4859E+02
  13.920  0.3967E+00  0.3967E+00  0.4860E+02
  13.930  0.4055E+00  0.4055E+00  0.4860E+02
  13.940  0.4146E+00  0.4146E+00  0.4861E+02
  13.950  0.4239E+00  0.4239E+00  0.4862E+02
  13.960  0.4334E+00  0.4334E+00  0.4863E+02
  13.970  0.4431E+00  0.4431E+00  0.4864E+02
  13.980  0.4529E+00  0.4529E+00  0.4865E+02
  13.990  0.4628E+00  0.4628E+00  0.4866E+02
  14.000  0.4729E+00  0.4729E+00  0.4867E+02
  14.010  0.4831E+00  0.4831E+00  0.4868E+02
  14.020  0.4933E+00  0.4933E+00  0.4869E+02
  14.030  0.5035E+00  0.5035E+00  0.4870E+02
  14.040  0.5138E+00  0.5138E+00  0.4871E+02
  14.050  0.5240E+00  0.5240E+00  0.4872E+02
  14.060  0.5342E+00  0.5342E+00  0.4873E+02
  14.070  0.5444E+00  0.5444E+00  0.4874E+02
  14.080  0.5546E+00  0.5546E+00  0.4875E+02
  14.090  0.5646E+00  0.5646E+00  0.4876E+02
  14.100  0.5746E+00  0.5746E+00  0.4877E+02
  14.110  0.5845E+00  0.5845E+00  0.4878E+02
  14.120  0.5944E+00  0.5944E+00  0.4880E+02
  14.130  0.6041E+00  0.6041E+00  0.4881E+02
  14.140  0.6137E+00  0.6137E+00  0.4882E+02
  14.150  0.6233E+00  0.6232E+00  0.4883E+02
  14.160  0.6327E+00  0.6327E+00  0.4884E+02
  14.170  0.6420E+00  0.6420E+00  0.4886E+02
  14.180  0.6513E+00  0.6513E+00  0.4887E+02
  14.190  0.6605E+00  0.6605E+00  0.4888E+02
  14.200  0.6697E+00  0.6697E+00  0.4890E+02
  14.210  0.6788E+00  0.6788E+00  0.4891E+02
  14.220  0.6878E+00  0.6878E+00  0.4892E+02
  14.230  0.6969E+00  0.6969E+00  0.4894E+02
  14.240  0.7060E+00  0.7060E+00  0.4895E+02
  14.250  0.7151E+00  0.7151E+00  0.4897E+02
  14.260  0.7242E+00  0.7242E+00  0.4898E+02
  14.270  0.7334E+00  0.7334E+00  0.4900E+02
  14.280  0.7427E+00  0.7427E+00  0.4901E+02
  14.290  0.7521E+00  0.7521E+00  0.4903E+02
  14.300  0.7617E+00  0.7617E+00  0.4904E+02
  14.310  0.7714E+00  0.7714E+00  0.4906E+02
  14.320  0.7812E+00  0.7812E+00  0.4907E+02
  14.330  0.7912E+00  0.7912E+00  0.4909E+02
  14.340  0.8014E+00  0.8014E+00  0.4910E+02
  14.350  0.8118E+00  0.8118E+00  0.4912E+02
  14.360  0.8224E+00  0.8224E+00  0.4914E+02
  14.370  0.8332E+00  0.8332E+00  0.4915E+02
  14.380  0.8442E+00  0.8442E+00  0.4917E+02
  14.390  0.8553E+00  0.8553E+00  0.4919E+02
  14.400  0.8667E+00  0.8667E+00  0.4921E+02
  14.410  0.8782E+00  0.8782E+00  0.4922E+02
  14.420  0.8898E+00  0.8898E+00  0.4924E+02
  14.430  0.9015E+00  0.9015E+00  0.4926E+02
  14.440  0.9133E+00  0.9133E+00  0.4928E+02
  14.450  0.9251E+00  0.9251E+00  0.4930E+02
  14.460  0.9369E+00  0.9369E+00  0.4931E+02
  14.470  0.9486E+00  0.9486E+00  0.4933E+02
  14.480  0.9601E+00  0.9601E+00  0.4935E+02
  14.490  0.9715E+00  0.9715E+00  0.4937E+02
  14.500  0.9827E+00  0.9827E+00  0.4939E+02
  14.510  0.9935E+00  0.9935E+00  0.4941E+02
  14.520  0.1004E+01  0.1004E+01  0.4943E+02
  14.530  0.1014E+01  0.1014E+01  0.4945E+02
  14.540  0.1023E+01  0.1023E+01  0.4947E+02
  14.550  0.1032E+01  0.1032E+01  0.4949E+02
  14.560  0.1040E+01  0.1040E+01  0.4951E+02
  14.570  0.1048E+01  0.1048E+01  0.4953E+02
  14.580  0.1054E+01  0.1054E+01  0.4956E+02
  14.590  0.1060E+01  0.1060E+01  0.4958E+02
  14.600  0.1064E+01  0.1064E+01  0.4960E+02
  14.610  0.1068E+01  0.1068E+01  0.4962E+02
  14.620  0.1071E+01  0.1071E+01  0.4964E+02
  14.630  0.1072E+01  0.1072E+01  0.4966E+02
  14.640  0.1072E+01  0.1072E+01  0.4968E+02
  14.650  0.1071E+01  0.1071E+01  0.4970E+02
  14.660  0.1069E+01  0.1069E+01  0.4973E+02
  14.670  0.1066E+01  0.1066E+01  0.4975E+02
  14.680  0.1061E+01  0.1061E+01  0.4977E+02
  14.690  0.1055E+01  0.1055E+01  0.4979E+02
  14.700  0.1048E+01  0.1048E+01  0.4981E+02
  14.710  0.1040E+01  0.1040E+01  0.4983E+02
  14.720  0.1031E+01  0.1031E+01  0.4985E+02
  14.730  0.1020E+01  0.1020E+01  0.4987E+02
  14.740  0.1009E+01  0.1009E+01  0.4989E+02
  14.750  0.9965E+00  0.9965E+00  0.4991E+02
  14.760  0.9831E+00  0.9831E+00  0.4993E+02
  14.770  0.9689E+00  0.9689E+00  0.4995E+02
  14.780  0.9540E+00  0.9540E+00  0.4997E+02
  14.790  0.9384E+00  0.9384E+00  0.4999E+02
  14.800  0.9223E+00  0.9223E+00  0.5001E+02
  14.810  0.9057E+00  0.9057E+00  0.5003E+02
  14.820  0.8888E+00  0.8888E+00  0.5004E+02
  14.830  0.8716E+00  0.8716E+00  0.5006E+02
  14.840  0.8543E+00  0.8543E+00  0.5008E+02
  14.850  0.8370E+00  0.8370E+00  0.5010E+02
  14.860  0.8197E+00  0.8197E+00  0.5011E+02
  14.870  0.8026E+00  0.8026E+00  0.5013E+02
  14.880  0.7858E+00  0.7858E+00  0.5014E+02
  14.890  0.7694E+00  0.7694E+00  0.5016E+02
  14.900  0.7534E+00  0.7534E+00  0.5017E+02
  14.910  0.7379E+00  0.7379E+00  0.5019E+02
  14.920  0.7231E+00  0.7231E+00  0.5020E+02
  14.930  0.7090E+00  0.7090E+00  0.5022E+02
  14.940  0.6956E+00  0.6956E+00  0.5023E+02
  14.950  0.6830E+00  0.6830E+00  0.5024E+02
  14.960  0.6713E+00  0.6713E+00  0.5026E+02
  14.970  0.6605E+00  0.6605E+00  0.5027E+02
  14.980  0.6507E+00  0.6507E+00  0.5028E+02
  14.990  0.6417E+00  0.6418E+00  0.5030E+02
  15.000  0.6338E+00  0.6338E+00  0.5031E+02
  15.010  0.6269E+00  0.6269E+00  0.5032E+02
  15.020  0.6209E+00  0.6209E+00  0.5034E+02
  15.030  0.6159E+00  0.6159E+00  0.5035E+02
  15.040  0.6119E+00  0.6119E+00  0.5036E+02
  15.050  0.6089E+00  0.6089E+00  0.5037E+02
  15.060  0.6068E+00  0.6068E+00  0.5038E+02
  15.070  0.6056E+00  0.6056E+00  0.5040E+02
  15.080  0.6053E+00  0.6053E+00  0.5041E+02
  15.090  0.6058E+00  0.6058E+00  0.5042E+02
  15.100  0.6072E+00  0.6072E+00  0.5043E+02
  15.110  0.6093E+00  0.6093E+00  0.5044E+02
  15.120  0.6122E+00  0.6122E+00  0.5046E+02
  15.130  0.6157E+00  0.6157E+00  0.5047E+02
  15.140  0.6200E+00  0.6200E+00  0.5048E+02
  15.150  0.6248E+00  0.6248E+00  0.5049E+02
  15.160  0.6302E+00  0.6302E+00  0.5051E+02
  15.170  0.6361E+00  0.6361E+00  0.5052E+02
  15.180  0.6426E+00  0.6426E+00  0.5053E+02
  15.190  0.6494E+00  0.6494E+00  0.5055E+02
  15.200  0.6567E+00  0.6567E+00  0.5056E+02
  15.210  0.6643E+00  0.6643E+00  0.5057E+02
  15.220  0.6723E+00  0.6723E+00  0.5059E+02
  15.230  0.6806E+00  0.6806E+00  0.5060E+02
  15.240  0.6891E+00  0.6891E+00  0.5061E+02
  15.250  0.6979E+00  0.6979E+00  0.5063E+02
  15.260  0.7069E+00  0.7069E+00  0.5064E+02
  15.270  0.7160E+00  0.7160E+00  0.5065E+02
  15.280  0.7254E+00  0.7253E+00  0.5067E+02
  15.290  0.7348E+00  0.7348E+00  0.5068E+02
  15.300  0.7443E+00  0.7443E+00  0.5070E+02
  15.310  0.7539E+00  0.7539E+00  0.5071E+02
  15.320  0.7636E+00  0.7636E+00  0.5073E+02
  15.330  0.7733E+00  0.7733E+00  0.5074E+02
  15.340  0.7830E+00  0.7830E+00  0.5076E+02
  15.350  0.7927E+00  0.7927E+00  0.5078E+02
  15.360  0.8024E+00  0.8024E+00  0.5079E+02
  15.370  0.8120E+00  0.8120E+00  0.5081E+02
  15.380  0.8216E+00  0.8216E+00  0.5082E+02
  15.390  0.8311E+00  0.8311E+00  0.5084E+02
  15.400  0.8405E+00  0.8405E+00  0.5086E+02
  15.410  0.8499E+00  0.8499E+00  0.5088E+02
  15.420  0.8590E+00  0.8590E+00  0.5089E+02
  15.430  0.8681E+00  0.8681E+00  0.5091E+02
  15.440  0.8770E+00  0.8770E+00  0.5093E+02
  15.450  0.8858E+00  0.8858E+00  0.5095E+02
  15.460  0.8943E+00  0.8943E+00  0.5096E+02
  15.470  0.9027E+00  0.9027E+00  0.5098E+02
  15.480  0.9109E+00  0.9109E+00  0.5100E+02
  15.490  0.9189E+00  0.9189E+00  0.5102E+02
  15.500  0.9267E+00  0.9267E+00  0.5104E+02
  15.510  0.9342E+00  0.9342E+00  0.5105E+02
  15.520  0.9415E+00  0.9415E+00  0.5107E+02
  15.530  0.9485E+00  0.9485E+00  0.5109E+02
  15.540  0.9553E+00  0.9553E+00  0.5111E+02
  15.550  0.9618E+00  0.9618E+00  0.5113E+02
  15.560  0.9680E+00  0.9680E+00  0.5115E+02
  15.570  0.9740E+00  0.9740E+00  0.5117E+02
  15.580  0.9796E+00  0.9796E+00  0.5119E+02
  15.590  0.9850E+00  0.9850E+00  0.5121E+02
  15.600  0.9900E+00  0.9900E+00  0.5123E+02
  15.610  0.9947E+00  0.9947E+00  0.5125E+02
  15.620  0.9990E+00  0.9990E+00  0.5127E+02
  15.630  0.1003E+01  0.1003E+01  0.5129E+02
  15.640  0.1007E+01  0.1007E+01  0.5131E+02
  15.650  0.1010E+01  0.1010E+01  0.5133E+02
  15.660  0.1013E+01  0.1013E+01  0.5135E+02
  15.670  0.1015E+01  0.1015E+01  0.5137E+02
  15.680  0.1017E+01  0.1017E+01  0.5139E+02
  15.690  0.1019E+01  0.1019E+01  0.5141E+02
  15.700  0.1020E+01  0.1020E+01  0.5143E+02
  15.710  0.1020E+01  0.1020E+01  0.5145E+02
  15.720  0.1021E+01  0.1021E+01  0.5147E+02
  15.730  0.1020E+01  0.1020E+01  0.5149E+02
  15.740  0.1019E+01  0.1019E+01  0.5151E+02
  15.750  0.1018E+01  0.1018E+01  0.5153E+02
  15.760  0.1016E+01  0.1016E+01  0.5155E+02
  15.770  0.1013E+01  0.1013E+01  0.5157E+02
  15.780  0.1010E+01  0.1010E+01  0.5159E+02
  15.790  0.1006E+01  0.1006E+01  0.5161E+02
  15.800  0.1001E+01  0.1001E+01  0.5163E+02
  15.810  0.9963E+00  0.9963E+00  0.5165E+02
  15.820  0.9906E+00  0.9906E+00  0.5167E+02
  15.830  0.9843E+00  0.9843E+00  0.5169E+02
  15.840  0.9773E+00  0.9774E+00  0.5171E+02
  15.850  0.9698E+00  0.9698E+00  0.5173E+02
  15.860  0.9617E+00  0.9617E+00  0.5175E+02
  15.870  0.9530E+00  0.9530E+00  0.5177E+02
  15.880  0.9438E+00  0.9438E+00  0.5179E+02
  15.890  0.9341E+00  0.9341E+00  0.5181E+02
  15.900  0.9239E+00  0.9239E+00  0.5183E+02
  15.910  0.9132E+00  0.9132E+00  0.5184E+02
  15.920  0.9021E+00  0.9021E+00  0.5186E+02
  15.930  0.8906E+00  0.8906E+00  0.5188E+02
  15.940  0.8788E+00  0.8788E+00  0.5190E+02
  15.950  0.8668E+00  0.8668E+00  0.5192E+02
  15.960  0.8545E+00  0.8545E+00  0.5193E+02
  15.970  0.8420E+00  0.8420E+00  0.5195E+02
  15.980  0.8294E+00  0.8294E+00  0.5197E+02
  15.990  0.8167E+00  0.8167E+00  0.5198E+02
  16.000  0.8041E+00  0.8041E+00  0.5200E+02
