#  E (eV)   dosup(E)     dosdw(E)   Int dos(E) EFermi =  14.493 eV
  -9.000  0.8608E-85  0.8608E-85  0.1722E-86
  -8.990  0.8608E-85  0.8608E-85  0.3443E-86
  -8.980  0.8608E-85  0.8608E-85  0.5165E-86
  -8.970  0.8608E-85  0.8608E-85  0.6886E-86
  -8.960  0.8608E-85  0.8608E-85  0.8608E-86
  -8.950  0.8608E-85  0.8608E-85  0.1033E-85
  -8.940  0.8608E-85  0.8608E-85  0.1205E-85
  -8.930  0.8608E-85  0.8608E-85  0.1377E-85
  -8.920  0.8608E-85  0.8608E-85  0.1549E-85
  -8.910  0.8608E-85  0.8608E-85  0.1722E-85
  -8.900  0.8608E-85  0.8608E-85  0.1894E-85
  -8.890  0.8608E-85  0.8608E-85  0.2066E-85
  -8.880  0.8608E-85  0.8608E-85  0.2238E-85
  -8.870  0.8608E-85  0.8608E-85  0.2410E-85
  -8.860  0.8608E-85  0.8608E-85  0.2582E-85
  -8.850  0.8608E-85  0.8608E-85  0.2755E-85
  -8.840  0.8608E-85  0.8608E-85  0.2927E-85
  -8.830  0.8608E-85  0.8608E-85  0.3099E-85
  -8.820  0.8608E-85  0.8608E-85  0.3271E-85
  -8.810  0.8608E-85  0.8608E-85  0.3443E-85
  -8.800  0.8608E-85  0.8608E-85  0.3615E-85
  -8.790  0.8608E-85  0.8608E-85  0.3787E-85
  -8.780  0.8608E-85  0.8608E-85  0.3960E-85
  -8.770  0.8608E-85  0.8608E-85  0.4132E-85
  -8.760  0.8608E-85  0.8608E-85  0.4304E-85
  -8.750  0.8608E-85  0.8608E-85  0.4476E-85
  -8.740  0.8608E-85  0.8608E-85  0.4648E-85
  -8.730  0.8608E-85  0.8608E-85  0.4820E-85
  -8.720  0.8608E-85  0.8608E-85  0.4993E-85
  -8.710  0.8608E-85  0.8608E-85  0.5165E-85
  -8.700  0.8608E-85  0.8608E-85  0.5337E-85
  -8.690  0.8608E-85  0.8608E-85  0.5509E-85
  -8.680  0.8608E-85  0.8608E-85  0.5681E-85
  -8.670  0.8608E-85  0.8608E-85  0.5853E-85
  -8.660  0.8608E-85  0.8608E-85  0.6026E-85
  -8.650  0.8608E-85  0.8608E-85  0.6198E-85
  -8.640  0.8608E-85  0.8608E-85  0.6370E-85
  -8.630  0.8608E-85  0.8608E-85  0.6542E-85
  -8.620  0.8608E-85  0.8608E-85  0.6714E-85
  -8.610  0.8608E-85  0.8608E-85  0.6886E-85
  -8.600  0.8608E-85  0.8608E-85  0.7059E-85
  -8.590  0.8608E-85  0.8608E-85  0.7231E-85
  -8.580  0.8608E-85  0.8608E-85  0.7403E-85
  -8.570  0.8608E-85  0.8608E-85  0.7575E-85
  -8.560  0.8608E-85  0.8608E-85  0.7747E-85
  -8.550  0.8608E-85  0.8608E-85  0.7919E-85
  -8.540  0.8608E-85  0.8608E-85  0.8091E-85
  -8.530  0.8608E-85  0.8608E-85  0.8264E-85
  -8.520  0.8608E-85  0.8608E-85  0.8436E-85
  -8.510  0.8608E-85  0.8608E-85  0.8608E-85
  -8.500  0.8608E-85  0.8608E-85  0.8780E-85
  -8.490  0.8608E-85  0.8608E-85  0.8952E-85
  -8.480  0.8608E-85  0.8608E-85  0.9124E-85
  -8.470  0.8608E-85  0.8608E-85  0.9297E-85
  -8.460  0.8608E-85  0.8608E-85  0.9469E-85
  -8.450  0.8608E-85  0.8608E-85  0.9641E-85
  -8.440  0.8608E-85  0.8608E-85  0.9813E-85
  -8.430  0.8608E-85  0.8608E-85  0.9985E-85
  -8.420  0.8608E-85  0.8608E-85  0.1016E-84
  -8.410  0.8608E-85  0.8608E-85  0.1033E-84
  -8.400  0.8608E-85  0.8608E-85  0.1050E-84
  -8.390  0.8608E-85  0.8608E-85  0.1067E-84
  -8.380  0.8608E-85  0.8608E-85  0.1085E-84
  -8.370  0.8608E-85  0.8608E-85  0.1102E-84
  -8.360  0.8608E-85  0.8608E-85  0.1119E-84
  -8.350  0.8608E-85  0.8608E-85  0.1136E-84
  -8.340  0.8608E-85  0.8608E-85  0.1153E-84
  -8.330  0.8608E-85  0.8608E-85  0.1171E-84
  -8.320  0.8608E-85  0.8608E-85  0.1188E-84
  -8.310  0.8608E-85  0.8608E-85  0.1205E-84
  -8.300  0.8608E-85  0.8608E-85  0.1222E-84
  -8.290  0.8608E-85  0.8608E-85  0.1240E-84
  -8.280  0.8608E-85  0.8608E-85  0.1257E-84
  -8.270  0.8608E-85  0.8608E-85  0.1274E-84
  -8.260  0.8608E-85  0.8608E-85  0.1291E-84
  -8.250  0.8608E-85  0.8608E-85  0.1308E-84
  -8.240  0.8608E-85  0.8608E-85  0.1326E-84
  -8.230  0.8608E-85  0.8608E-85  0.1343E-84
  -8.220  0.8609E-85  0.8609E-85  0.1360E-84
  -8.210  0.8612E-85  0.8612E-85  0.1377E-84
  -8.200  0.8623E-85  0.8623E-85  0.1395E-84
  -8.190  0.8652E-85  0.8652E-85  0.1412E-84
  -8.180  0.8735E-85  0.8735E-85  0.1429E-84
  -8.170  0.8964E-85  0.8964E-85  0.1447E-84
  -8.160  0.9603E-85  0.9603E-85  0.1466E-84
  -8.150  0.1138E-84  0.1138E-84  0.1489E-84
  -8.140  0.1629E-84  0.1629E-84  0.1522E-84
  -8.130  0.2982E-84  0.2982E-84  0.1581E-84
  -8.120  0.6703E-84  0.6702E-84  0.1715E-84
  -8.110  0.1690E-83  0.1690E-83  0.2054E-84
  -8.100  0.4479E-83  0.4478E-83  0.2949E-84
  -8.090  0.1208E-82  0.1208E-82  0.5366E-84
  -8.080  0.3276E-82  0.3276E-82  0.1192E-83
  -8.070  0.8883E-82  0.8883E-82  0.2968E-83
  -8.060  0.2405E-81  0.2405E-81  0.7778E-83
  -8.050  0.6496E-81  0.6495E-81  0.2077E-82
  -8.040  0.1750E-80  0.1750E-80  0.5577E-82
  -8.030  0.4702E-80  0.4702E-80  0.1498E-81
  -8.020  0.1260E-79  0.1260E-79  0.4018E-81
  -8.010  0.3368E-79  0.3367E-79  0.1075E-80
  -8.000  0.8976E-79  0.8976E-79  0.2871E-80
  -7.990  0.2386E-78  0.2386E-78  0.7642E-80
  -7.980  0.6326E-78  0.6325E-78  0.2029E-79
  -7.970  0.1672E-77  0.1672E-77  0.5374E-79
  -7.960  0.4410E-77  0.4409E-77  0.1419E-78
  -7.950  0.1160E-76  0.1160E-76  0.3738E-78
  -7.940  0.3041E-76  0.3041E-76  0.9821E-78
  -7.930  0.7954E-76  0.7954E-76  0.2573E-77
  -7.920  0.2075E-75  0.2075E-75  0.6722E-77
  -7.910  0.5398E-75  0.5397E-75  0.1752E-76
  -7.900  0.1400E-74  0.1400E-74  0.4552E-76
  -7.890  0.3623E-74  0.3623E-74  0.1180E-75
  -7.880  0.9350E-74  0.9349E-74  0.3050E-75
  -7.870  0.2406E-73  0.2406E-73  0.7862E-75
  -7.860  0.6176E-73  0.6175E-73  0.2021E-74
  -7.850  0.1581E-72  0.1581E-72  0.5183E-74
  -7.840  0.4035E-72  0.4035E-72  0.1325E-73
  -7.830  0.1027E-71  0.1027E-71  0.3380E-73
  -7.820  0.2608E-71  0.2608E-71  0.8596E-73
  -7.810  0.6605E-71  0.6604E-71  0.2180E-72
  -7.800  0.1668E-70  0.1668E-70  0.5516E-72
  -7.790  0.4201E-70  0.4200E-70  0.1392E-71
  -7.780  0.1055E-69  0.1055E-69  0.3502E-71
  -7.770  0.2643E-69  0.2643E-69  0.8788E-71
  -7.760  0.6603E-69  0.6602E-69  0.2199E-70
  -7.750  0.1645E-68  0.1645E-68  0.5489E-70
  -7.740  0.4088E-68  0.4087E-68  0.1366E-69
  -7.730  0.1013E-67  0.1013E-67  0.3392E-69
  -7.720  0.2504E-67  0.2503E-67  0.8399E-69
  -7.710  0.6171E-67  0.6170E-67  0.2074E-68
  -7.700  0.1517E-66  0.1517E-66  0.5108E-68
  -7.690  0.3719E-66  0.3718E-66  0.1254E-67
  -7.680  0.9091E-66  0.9091E-66  0.3073E-67
  -7.670  0.2217E-65  0.2217E-65  0.7506E-67
  -7.660  0.5391E-65  0.5390E-65  0.1829E-66
  -7.650  0.1307E-64  0.1307E-64  0.4443E-66
  -7.640  0.3162E-64  0.3162E-64  0.1077E-65
  -7.630  0.7627E-64  0.7626E-64  0.2602E-65
  -7.620  0.1835E-63  0.1835E-63  0.6272E-65
  -7.610  0.4402E-63  0.4402E-63  0.1508E-64
  -7.600  0.1053E-62  0.1053E-62  0.3614E-64
  -7.590  0.2513E-62  0.2513E-62  0.8641E-64
  -7.580  0.5981E-62  0.5981E-62  0.2060E-63
  -7.570  0.1420E-61  0.1420E-61  0.4899E-63
  -7.560  0.3360E-61  0.3360E-61  0.1162E-62
  -7.550  0.7933E-61  0.7932E-61  0.2748E-62
  -7.540  0.1868E-60  0.1867E-60  0.6484E-62
  -7.530  0.4385E-60  0.4385E-60  0.1525E-61
  -7.520  0.1027E-59  0.1027E-59  0.3579E-61
  -7.510  0.2398E-59  0.2398E-59  0.8375E-61
  -7.500  0.5585E-59  0.5585E-59  0.1954E-60
  -7.490  0.1297E-58  0.1297E-58  0.4549E-60
  -7.480  0.3005E-58  0.3005E-58  0.1056E-59
  -7.470  0.6943E-58  0.6942E-58  0.2444E-59
  -7.460  0.1600E-57  0.1600E-57  0.5643E-59
  -7.450  0.3676E-57  0.3675E-57  0.1299E-58
  -7.440  0.8424E-57  0.8423E-57  0.2984E-58
  -7.430  0.1925E-56  0.1925E-56  0.6834E-58
  -7.420  0.4388E-56  0.4388E-56  0.1561E-57
  -7.410  0.9975E-56  0.9975E-56  0.3556E-57
  -7.400  0.2261E-55  0.2261E-55  0.8079E-57
  -7.390  0.5113E-55  0.5113E-55  0.1830E-56
  -7.380  0.1153E-54  0.1153E-54  0.4136E-56
  -7.370  0.2593E-54  0.2593E-54  0.9322E-56
  -7.360  0.5815E-54  0.5815E-54  0.2095E-55
  -7.350  0.1301E-53  0.1301E-53  0.4697E-55
  -7.340  0.2902E-53  0.2901E-53  0.1050E-54
  -7.330  0.6455E-53  0.6455E-53  0.2341E-54
  -7.320  0.1432E-52  0.1432E-52  0.5205E-54
  -7.310  0.3169E-52  0.3169E-52  0.1154E-53
  -7.300  0.6994E-52  0.6993E-52  0.2553E-53
  -7.290  0.1539E-51  0.1539E-51  0.5631E-53
  -7.280  0.3379E-51  0.3378E-51  0.1239E-52
  -7.270  0.7396E-51  0.7395E-51  0.2718E-52
  -7.260  0.1615E-50  0.1614E-50  0.5947E-52
  -7.250  0.3515E-50  0.3515E-50  0.1298E-51
  -7.240  0.7633E-50  0.7633E-50  0.2824E-51
  -7.230  0.1653E-49  0.1653E-49  0.6130E-51
  -7.220  0.3570E-49  0.3570E-49  0.1327E-50
  -7.210  0.7690E-49  0.7690E-49  0.2865E-50
  -7.200  0.1652E-48  0.1652E-48  0.6169E-50
  -7.190  0.3539E-48  0.3539E-48  0.1325E-49
  -7.180  0.7562E-48  0.7561E-48  0.2837E-49
  -7.170  0.1611E-47  0.1611E-47  0.6059E-49
  -7.160  0.3424E-47  0.3424E-47  0.1291E-48
  -7.150  0.7257E-47  0.7257E-47  0.2742E-48
  -7.140  0.1534E-46  0.1534E-46  0.5810E-48
  -7.130  0.3234E-46  0.3233E-46  0.1228E-47
  -7.120  0.6798E-46  0.6798E-46  0.2587E-47
  -7.110  0.1425E-45  0.1425E-45  0.5438E-47
  -7.100  0.2981E-45  0.2980E-45  0.1140E-46
  -7.090  0.6216E-45  0.6216E-45  0.2383E-46
  -7.080  0.1293E-44  0.1293E-44  0.4969E-46
  -7.070  0.2682E-44  0.2681E-44  0.1033E-45
  -7.060  0.5547E-44  0.5547E-44  0.2143E-45
  -7.050  0.1145E-43  0.1144E-43  0.4432E-45
  -7.040  0.2355E-43  0.2355E-43  0.9141E-45
  -7.030  0.4832E-43  0.4832E-43  0.1881E-44
  -7.020  0.9890E-43  0.9889E-43  0.3858E-44
  -7.010  0.2018E-42  0.2018E-42  0.7895E-44
  -7.000  0.4109E-42  0.4108E-42  0.1611E-43
  -6.990  0.8341E-42  0.8340E-42  0.3279E-43
  -6.980  0.1689E-41  0.1689E-41  0.6657E-43
  -6.970  0.3410E-41  0.3410E-41  0.1348E-42
  -6.960  0.6867E-41  0.6866E-41  0.2721E-42
  -6.950  0.1379E-40  0.1379E-40  0.5479E-42
  -6.940  0.2762E-40  0.2762E-40  0.1100E-41
  -6.930  0.5518E-40  0.5517E-40  0.2204E-41
  -6.920  0.1099E-39  0.1099E-39  0.4402E-41
  -6.910  0.2184E-39  0.2184E-39  0.8770E-41
  -6.900  0.4328E-39  0.4327E-39  0.1743E-40
  -6.890  0.8552E-39  0.8552E-39  0.3453E-40
  -6.880  0.1686E-38  0.1685E-38  0.6824E-40
  -6.870  0.3313E-38  0.3313E-38  0.1345E-39
  -6.860  0.6495E-38  0.6494E-38  0.2644E-39
  -6.850  0.1270E-37  0.1270E-37  0.5183E-39
  -6.840  0.2476E-37  0.2476E-37  0.1013E-38
  -6.830  0.4814E-37  0.4814E-37  0.1976E-38
  -6.820  0.9337E-37  0.9336E-37  0.3844E-38
  -6.810  0.1806E-36  0.1806E-36  0.7455E-38
  -6.800  0.3484E-36  0.3483E-36  0.1442E-37
  -6.790  0.6702E-36  0.6701E-36  0.2782E-37
  -6.780  0.1286E-35  0.1286E-35  0.5354E-37
  -6.770  0.2460E-35  0.2460E-35  0.1027E-36
  -6.760  0.4695E-35  0.4695E-35  0.1966E-36
  -6.750  0.8936E-35  0.8935E-35  0.3754E-36
  -6.740  0.1696E-34  0.1696E-34  0.7146E-36
  -6.730  0.3211E-34  0.3211E-34  0.1357E-35
  -6.720  0.6062E-34  0.6062E-34  0.2569E-35
  -6.710  0.1141E-33  0.1141E-33  0.4852E-35
  -6.700  0.2143E-33  0.2143E-33  0.9139E-35
  -6.690  0.4014E-33  0.4014E-33  0.1717E-34
  -6.680  0.7498E-33  0.7497E-33  0.3216E-34
  -6.670  0.1397E-32  0.1397E-32  0.6009E-34
  -6.660  0.2595E-32  0.2595E-32  0.1120E-33
  -6.650  0.4807E-32  0.4807E-32  0.2081E-33
  -6.640  0.8884E-32  0.8883E-32  0.3858E-33
  -6.630  0.1637E-31  0.1637E-31  0.7132E-33
  -6.620  0.3009E-31  0.3009E-31  0.1315E-32
  -6.610  0.5516E-31  0.5515E-31  0.2418E-32
  -6.600  0.1008E-30  0.1008E-30  0.4435E-32
  -6.590  0.1838E-30  0.1838E-30  0.8111E-32
  -6.580  0.3343E-30  0.3343E-30  0.1480E-31
  -6.570  0.6062E-30  0.6062E-30  0.2692E-31
  -6.560  0.1096E-29  0.1096E-29  0.4885E-31
  -6.550  0.1978E-29  0.1978E-29  0.8840E-31
  -6.540  0.3558E-29  0.3558E-29  0.1596E-30
  -6.530  0.6383E-29  0.6383E-29  0.2872E-30
  -6.520  0.1142E-28  0.1142E-28  0.5157E-30
  -6.510  0.2038E-28  0.2038E-28  0.9233E-30
  -6.500  0.3628E-28  0.3628E-28  0.1649E-29
  -6.490  0.6439E-28  0.6439E-28  0.2937E-29
  -6.480  0.1140E-27  0.1140E-27  0.5217E-29
  -6.470  0.2013E-27  0.2013E-27  0.9242E-29
  -6.460  0.3544E-27  0.3544E-27  0.1633E-28
  -6.450  0.6224E-27  0.6223E-27  0.2878E-28
  -6.440  0.1090E-26  0.1090E-26  0.5058E-28
  -6.430  0.1904E-26  0.1904E-26  0.8865E-28
  -6.420  0.3317E-26  0.3317E-26  0.1550E-27
  -6.410  0.5763E-26  0.5762E-26  0.2702E-27
  -6.400  0.9985E-26  0.9985E-26  0.4699E-27
  -6.390  0.1726E-25  0.1726E-25  0.8151E-27
  -6.380  0.2974E-25  0.2974E-25  0.1410E-26
  -6.370  0.5112E-25  0.5112E-25  0.2432E-26
  -6.360  0.8764E-25  0.8764E-25  0.4185E-26
  -6.350  0.1498E-24  0.1498E-24  0.7182E-26
  -6.340  0.2555E-24  0.2555E-24  0.1229E-25
  -6.330  0.4346E-24  0.4345E-24  0.2098E-25
  -6.320  0.7371E-24  0.7370E-24  0.3572E-25
  -6.310  0.1247E-23  0.1247E-23  0.6066E-25
  -6.300  0.2103E-23  0.2103E-23  0.1027E-24
  -6.290  0.3539E-23  0.3539E-23  0.1735E-24
  -6.280  0.5939E-23  0.5939E-23  0.2923E-24
  -6.270  0.9940E-23  0.9939E-23  0.4911E-24
  -6.260  0.1659E-22  0.1659E-22  0.8229E-24
  -6.250  0.2762E-22  0.2762E-22  0.1375E-23
  -6.240  0.4586E-22  0.4585E-22  0.2292E-23
  -6.230  0.7593E-22  0.7593E-22  0.3811E-23
  -6.220  0.1254E-21  0.1254E-21  0.6319E-23
  -6.210  0.2065E-21  0.2065E-21  0.1045E-22
  -6.200  0.3393E-21  0.3392E-21  0.1723E-22
  -6.190  0.5558E-21  0.5558E-21  0.2835E-22
  -6.180  0.9081E-21  0.9081E-21  0.4651E-22
  -6.170  0.1480E-20  0.1480E-20  0.7611E-22
  -6.160  0.2405E-20  0.2405E-20  0.1242E-21
  -6.150  0.3899E-20  0.3898E-20  0.2022E-21
  -6.140  0.6303E-20  0.6302E-20  0.3282E-21
  -6.130  0.1016E-19  0.1016E-19  0.5315E-21
  -6.120  0.1634E-19  0.1634E-19  0.8583E-21
  -6.110  0.2621E-19  0.2620E-19  0.1382E-20
  -6.100  0.4192E-19  0.4191E-19  0.2221E-20
  -6.090  0.6687E-19  0.6686E-19  0.3558E-20
  -6.080  0.1064E-18  0.1064E-18  0.5686E-20
  -6.070  0.1688E-18  0.1688E-18  0.9062E-20
  -6.060  0.2672E-18  0.2671E-18  0.1440E-19
  -6.050  0.4217E-18  0.4217E-18  0.2284E-19
  -6.040  0.6638E-18  0.6638E-18  0.3611E-19
  -6.030  0.1042E-17  0.1042E-17  0.5696E-19
  -6.020  0.1632E-17  0.1632E-17  0.8959E-19
  -6.010  0.2549E-17  0.2548E-17  0.1406E-18
  -6.000  0.3970E-17  0.3969E-17  0.2200E-18
  -5.990  0.6166E-17  0.6166E-17  0.3433E-18
  -5.980  0.9554E-17  0.9553E-17  0.5343E-18
  -5.970  0.1476E-16  0.1476E-16  0.8296E-18
  -5.960  0.2275E-16  0.2275E-16  0.1285E-17
  -5.950  0.3497E-16  0.3497E-16  0.1984E-17
  -5.940  0.5361E-16  0.5361E-16  0.3056E-17
  -5.930  0.8196E-16  0.8196E-16  0.4695E-17
  -5.920  0.1250E-15  0.1250E-15  0.7195E-17
  -5.910  0.1901E-15  0.1901E-15  0.1100E-16
  -5.900  0.2883E-15  0.2883E-15  0.1676E-16
  -5.890  0.4362E-15  0.4362E-15  0.2549E-16
  -5.880  0.6582E-15  0.6581E-15  0.3865E-16
  -5.870  0.9905E-15  0.9904E-15  0.5846E-16
  -5.860  0.1487E-14  0.1487E-14  0.8819E-16
  -5.850  0.2225E-14  0.2225E-14  0.1327E-15
  -5.840  0.3322E-14  0.3322E-14  0.1991E-15
  -5.830  0.4947E-14  0.4947E-14  0.2981E-15
  -5.820  0.7347E-14  0.7347E-14  0.4450E-15
  -5.810  0.1088E-13  0.1088E-13  0.6627E-15
  -5.800  0.1608E-13  0.1608E-13  0.9842E-15
  -5.790  0.2369E-13  0.2369E-13  0.1458E-14
  -5.780  0.3481E-13  0.3481E-13  0.2154E-14
  -5.770  0.5102E-13  0.5102E-13  0.3175E-14
  -5.760  0.7459E-13  0.7458E-13  0.4666E-14
  -5.750  0.1087E-12  0.1087E-12  0.6841E-14
  -5.740  0.1581E-12  0.1581E-12  0.1000E-13
  -5.730  0.2294E-12  0.2293E-12  0.1459E-13
  -5.720  0.3318E-12  0.3318E-12  0.2123E-13
  -5.710  0.4787E-12  0.4786E-12  0.3080E-13
  -5.700  0.6888E-12  0.6887E-12  0.4457E-13
  -5.690  0.9885E-12  0.9885E-12  0.6434E-13
  -5.680  0.1415E-11  0.1415E-11  0.9264E-13
  -5.670  0.2020E-11  0.2020E-11  0.1330E-12
  -5.660  0.2877E-11  0.2876E-11  0.1906E-12
  -5.650  0.4085E-11  0.4085E-11  0.2723E-12
  -5.640  0.5787E-11  0.5787E-11  0.3880E-12
  -5.630  0.8176E-11  0.8176E-11  0.5515E-12
  -5.620  0.1152E-10  0.1152E-10  0.7819E-12
  -5.610  0.1619E-10  0.1619E-10  0.1106E-11
  -5.600  0.2270E-10  0.2270E-10  0.1560E-11
  -5.590  0.3173E-10  0.3173E-10  0.2194E-11
  -5.580  0.4425E-10  0.4425E-10  0.3079E-11
  -5.570  0.6154E-10  0.6154E-10  0.4310E-11
  -5.560  0.8538E-10  0.8537E-10  0.6018E-11
  -5.550  0.1181E-09  0.1181E-09  0.8380E-11
  -5.540  0.1630E-09  0.1630E-09  0.1164E-10
  -5.530  0.2244E-09  0.2244E-09  0.1613E-10
  -5.520  0.3080E-09  0.3080E-09  0.2229E-10
  -5.510  0.4218E-09  0.4218E-09  0.3072E-10
  -5.500  0.5760E-09  0.5760E-09  0.4224E-10
  -5.490  0.7847E-09  0.7847E-09  0.5794E-10
  -5.480  0.1066E-08  0.1066E-08  0.7926E-10
  -5.470  0.1445E-08  0.1445E-08  0.1082E-09
  -5.460  0.1953E-08  0.1953E-08  0.1472E-09
  -5.450  0.2633E-08  0.2633E-08  0.1999E-09
  -5.440  0.3540E-08  0.3540E-08  0.2707E-09
  -5.430  0.4748E-08  0.4748E-08  0.3656E-09
  -5.420  0.6351E-08  0.6351E-08  0.4926E-09
  -5.410  0.8474E-08  0.8474E-08  0.6621E-09
  -5.400  0.1128E-07  0.1128E-07  0.8877E-09
  -5.390  0.1497E-07  0.1497E-07  0.1187E-08
  -5.380  0.1982E-07  0.1982E-07  0.1584E-08
  -5.370  0.2618E-07  0.2618E-07  0.2107E-08
  -5.360  0.3448E-07  0.3448E-07  0.2797E-08
  -5.350  0.4530E-07  0.4530E-07  0.3703E-08
  -5.340  0.5937E-07  0.5936E-07  0.4890E-08
  -5.330  0.7760E-07  0.7760E-07  0.6442E-08
  -5.320  0.1012E-06  0.1012E-06  0.8465E-08
  -5.310  0.1316E-06  0.1316E-06  0.1110E-07
  -5.300  0.1707E-06  0.1707E-06  0.1451E-07
  -5.290  0.2208E-06  0.2208E-06  0.1893E-07
  -5.280  0.2850E-06  0.2849E-06  0.2462E-07
  -5.270  0.3668E-06  0.3668E-06  0.3196E-07
  -5.260  0.4710E-06  0.4710E-06  0.4138E-07
  -5.250  0.6032E-06  0.6032E-06  0.5344E-07
  -5.240  0.7705E-06  0.7705E-06  0.6885E-07
  -5.230  0.9819E-06  0.9818E-06  0.8849E-07
  -5.220  0.1248E-05  0.1248E-05  0.1134E-06
  -5.210  0.1582E-05  0.1582E-05  0.1451E-06
  -5.200  0.2001E-05  0.2001E-05  0.1851E-06
  -5.190  0.2524E-05  0.2524E-05  0.2356E-06
  -5.180  0.3176E-05  0.3176E-05  0.2991E-06
  -5.170  0.3986E-05  0.3986E-05  0.3788E-06
  -5.160  0.4990E-05  0.4990E-05  0.4786E-06
  -5.150  0.6231E-05  0.6231E-05  0.6032E-06
  -5.140  0.7762E-05  0.7762E-05  0.7585E-06
  -5.130  0.9645E-05  0.9645E-05  0.9514E-06
  -5.120  0.1195E-04  0.1195E-04  0.1190E-05
  -5.110  0.1478E-04  0.1478E-04  0.1486E-05
  -5.100  0.1823E-04  0.1823E-04  0.1851E-05
  -5.090  0.2243E-04  0.2243E-04  0.2299E-05
  -5.080  0.2752E-04  0.2752E-04  0.2850E-05
  -5.070  0.3369E-04  0.3369E-04  0.3524E-05
  -5.060  0.4114E-04  0.4114E-04  0.4346E-05
  -5.050  0.5012E-04  0.5012E-04  0.5349E-05
  -5.040  0.6091E-04  0.6090E-04  0.6567E-05
  -5.030  0.7383E-04  0.7383E-04  0.8043E-05
  -5.020  0.8928E-04  0.8927E-04  0.9829E-05
  -5.010  0.1077E-03  0.1077E-03  0.1198E-04
  -5.000  0.1296E-03  0.1296E-03  0.1457E-04
  -4.990  0.1556E-03  0.1556E-03  0.1769E-04
  -4.980  0.1863E-03  0.1863E-03  0.2141E-04
  -4.970  0.2225E-03  0.2225E-03  0.2586E-04
  -4.960  0.2652E-03  0.2652E-03  0.3117E-04
  -4.950  0.3153E-03  0.3153E-03  0.3747E-04
  -4.940  0.3740E-03  0.3740E-03  0.4495E-04
  -4.930  0.4425E-03  0.4425E-03  0.5380E-04
  -4.920  0.5223E-03  0.5223E-03  0.6425E-04
  -4.910  0.6151E-03  0.6151E-03  0.7655E-04
  -4.900  0.7226E-03  0.7226E-03  0.9100E-04
  -4.890  0.8469E-03  0.8469E-03  0.1079E-03
  -4.880  0.9902E-03  0.9902E-03  0.1277E-03
  -4.870  0.1155E-02  0.1155E-02  0.1508E-03
  -4.860  0.1344E-02  0.1344E-02  0.1777E-03
  -4.850  0.1561E-02  0.1561E-02  0.2090E-03
  -4.840  0.1808E-02  0.1808E-02  0.2451E-03
  -4.830  0.2090E-02  0.2090E-02  0.2869E-03
  -4.820  0.2410E-02  0.2410E-02  0.3351E-03
  -4.810  0.2773E-02  0.2773E-02  0.3906E-03
  -4.800  0.3183E-02  0.3183E-02  0.4542E-03
  -4.790  0.3645E-02  0.3645E-02  0.5271E-03
  -4.780  0.4165E-02  0.4165E-02  0.6104E-03
  -4.770  0.4749E-02  0.4749E-02  0.7054E-03
  -4.760  0.5402E-02  0.5402E-02  0.8134E-03
  -4.750  0.6132E-02  0.6132E-02  0.9361E-03
  -4.740  0.6944E-02  0.6944E-02  0.1075E-02
  -4.730  0.7848E-02  0.7848E-02  0.1232E-02
  -4.720  0.8850E-02  0.8849E-02  0.1409E-02
  -4.710  0.9958E-02  0.9957E-02  0.1608E-02
  -4.700  0.1118E-01  0.1118E-01  0.1832E-02
  -4.690  0.1253E-01  0.1253E-01  0.2082E-02
  -4.680  0.1400E-01  0.1400E-01  0.2362E-02
  -4.670  0.1562E-01  0.1562E-01  0.2675E-02
  -4.660  0.1740E-01  0.1740E-01  0.3023E-02
  -4.650  0.1933E-01  0.1933E-01  0.3409E-02
  -4.640  0.2143E-01  0.2143E-01  0.3838E-02
  -4.630  0.2371E-01  0.2371E-01  0.4312E-02
  -4.620  0.2619E-01  0.2619E-01  0.4836E-02
  -4.610  0.2886E-01  0.2886E-01  0.5413E-02
  -4.600  0.3175E-01  0.3175E-01  0.6048E-02
  -4.590  0.3485E-01  0.3485E-01  0.6745E-02
  -4.580  0.3819E-01  0.3819E-01  0.7509E-02
  -4.570  0.4176E-01  0.4176E-01  0.8344E-02
  -4.560  0.4558E-01  0.4558E-01  0.9256E-02
  -4.550  0.4966E-01  0.4966E-01  0.1025E-01
  -4.540  0.5401E-01  0.5401E-01  0.1133E-01
  -4.530  0.5863E-01  0.5863E-01  0.1250E-01
  -4.520  0.6353E-01  0.6353E-01  0.1377E-01
  -4.510  0.6872E-01  0.6872E-01  0.1515E-01
  -4.500  0.7421E-01  0.7421E-01  0.1663E-01
  -4.490  0.8000E-01  0.8000E-01  0.1823E-01
  -4.480  0.8609E-01  0.8609E-01  0.1995E-01
  -4.470  0.9250E-01  0.9250E-01  0.2180E-01
  -4.460  0.9922E-01  0.9922E-01  0.2379E-01
  -4.450  0.1063E+00  0.1063E+00  0.2591E-01
  -4.440  0.1136E+00  0.1136E+00  0.2818E-01
  -4.430  0.1213E+00  0.1213E+00  0.3061E-01
  -4.420  0.1293E+00  0.1293E+00  0.3320E-01
  -4.410  0.1376E+00  0.1376E+00  0.3595E-01
  -4.400  0.1463E+00  0.1463E+00  0.3888E-01
  -4.390  0.1553E+00  0.1553E+00  0.4198E-01
  -4.380  0.1646E+00  0.1646E+00  0.4527E-01
  -4.370  0.1743E+00  0.1743E+00  0.4876E-01
  -4.360  0.1842E+00  0.1842E+00  0.5244E-01
  -4.350  0.1945E+00  0.1945E+00  0.5633E-01
  -4.340  0.2051E+00  0.2051E+00  0.6044E-01
  -4.330  0.2160E+00  0.2160E+00  0.6476E-01
  -4.320  0.2273E+00  0.2273E+00  0.6930E-01
  -4.310  0.2388E+00  0.2388E+00  0.7408E-01
  -4.300  0.2506E+00  0.2506E+00  0.7909E-01
  -4.290  0.2628E+00  0.2628E+00  0.8435E-01
  -4.280  0.2752E+00  0.2752E+00  0.8985E-01
  -4.270  0.2879E+00  0.2879E+00  0.9561E-01
  -4.260  0.3010E+00  0.3010E+00  0.1016E+00
  -4.250  0.3143E+00  0.3143E+00  0.1079E+00
  -4.240  0.3278E+00  0.3278E+00  0.1145E+00
  -4.230  0.3417E+00  0.3417E+00  0.1213E+00
  -4.220  0.3558E+00  0.3558E+00  0.1284E+00
  -4.210  0.3701E+00  0.3701E+00  0.1358E+00
  -4.200  0.3847E+00  0.3847E+00  0.1435E+00
  -4.190  0.3996E+00  0.3996E+00  0.1515E+00
  -4.180  0.4146E+00  0.4146E+00  0.1598E+00
  -4.170  0.4299E+00  0.4299E+00  0.1684E+00
  -4.160  0.4454E+00  0.4454E+00  0.1773E+00
  -4.150  0.4611E+00  0.4611E+00  0.1865E+00
  -4.140  0.4770E+00  0.4770E+00  0.1961E+00
  -4.130  0.4931E+00  0.4931E+00  0.2059E+00
  -4.120  0.5093E+00  0.5093E+00  0.2161E+00
  -4.110  0.5257E+00  0.5257E+00  0.2266E+00
  -4.100  0.5421E+00  0.5421E+00  0.2375E+00
  -4.090  0.5588E+00  0.5588E+00  0.2486E+00
  -4.080  0.5754E+00  0.5754E+00  0.2602E+00
  -4.070  0.5922E+00  0.5922E+00  0.2720E+00
  -4.060  0.6090E+00  0.6090E+00  0.2842E+00
  -4.050  0.6259E+00  0.6259E+00  0.2967E+00
  -4.040  0.6427E+00  0.6427E+00  0.3096E+00
  -4.030  0.6596E+00  0.6596E+00  0.3227E+00
  -4.020  0.6763E+00  0.6763E+00  0.3363E+00
  -4.010  0.6931E+00  0.6930E+00  0.3501E+00
  -4.000  0.7097E+00  0.7097E+00  0.3643E+00
  -3.990  0.7262E+00  0.7262E+00  0.3788E+00
  -3.980  0.7425E+00  0.7425E+00  0.3937E+00
  -3.970  0.7586E+00  0.7586E+00  0.4089E+00
  -3.960  0.7746E+00  0.7746E+00  0.4244E+00
  -3.950  0.7903E+00  0.7903E+00  0.4402E+00
  -3.940  0.8057E+00  0.8057E+00  0.4563E+00
  -3.930  0.8208E+00  0.8208E+00  0.4727E+00
  -3.920  0.8356E+00  0.8356E+00  0.4894E+00
  -3.910  0.8501E+00  0.8501E+00  0.5064E+00
  -3.900  0.8641E+00  0.8641E+00  0.5237E+00
  -3.890  0.8778E+00  0.8778E+00  0.5412E+00
  -3.880  0.8910E+00  0.8910E+00  0.5591E+00
  -3.870  0.9037E+00  0.9037E+00  0.5771E+00
  -3.860  0.9160E+00  0.9160E+00  0.5955E+00
  -3.850  0.9278E+00  0.9278E+00  0.6140E+00
  -3.840  0.9391E+00  0.9391E+00  0.6328E+00
  -3.830  0.9498E+00  0.9498E+00  0.6518E+00
  -3.820  0.9599E+00  0.9599E+00  0.6710E+00
  -3.810  0.9695E+00  0.9695E+00  0.6904E+00
  -3.800  0.9785E+00  0.9785E+00  0.7100E+00
  -3.790  0.9870E+00  0.9869E+00  0.7297E+00
  -3.780  0.9948E+00  0.9948E+00  0.7496E+00
  -3.770  0.1002E+01  0.1002E+01  0.7696E+00
  -3.760  0.1008E+01  0.1008E+01  0.7898E+00
  -3.750  0.1014E+01  0.1014E+01  0.8101E+00
  -3.740  0.1020E+01  0.1020E+01  0.8305E+00
  -3.730  0.1024E+01  0.1024E+01  0.8510E+00
  -3.720  0.1028E+01  0.1028E+01  0.8715E+00
  -3.710  0.1032E+01  0.1032E+01  0.8922E+00
  -3.700  0.1035E+01  0.1035E+01  0.9129E+00
  -3.690  0.1037E+01  0.1037E+01  0.9336E+00
  -3.680  0.1038E+01  0.1038E+01  0.9544E+00
  -3.670  0.1039E+01  0.1039E+01  0.9751E+00
  -3.660  0.1039E+01  0.1039E+01  0.9959E+00
  -3.650  0.1039E+01  0.1039E+01  0.1017E+01
  -3.640  0.1038E+01  0.1038E+01  0.1037E+01
  -3.630  0.1036E+01  0.1036E+01  0.1058E+01
  -3.620  0.1034E+01  0.1034E+01  0.1079E+01
  -3.610  0.1031E+01  0.1031E+01  0.1099E+01
  -3.600  0.1027E+01  0.1027E+01  0.1120E+01
  -3.590  0.1023E+01  0.1023E+01  0.1140E+01
  -3.580  0.1018E+01  0.1018E+01  0.1161E+01
  -3.570  0.1013E+01  0.1013E+01  0.1181E+01
  -3.560  0.1007E+01  0.1007E+01  0.1201E+01
  -3.550  0.1001E+01  0.1001E+01  0.1221E+01
  -3.540  0.9938E+00  0.9938E+00  0.1241E+01
  -3.530  0.9862E+00  0.9862E+00  0.1261E+01
  -3.520  0.9780E+00  0.9780E+00  0.1280E+01
  -3.510  0.9694E+00  0.9694E+00  0.1300E+01
  -3.500  0.9601E+00  0.9601E+00  0.1319E+01
  -3.490  0.9504E+00  0.9504E+00  0.1338E+01
  -3.480  0.9402E+00  0.9402E+00  0.1357E+01
  -3.470  0.9294E+00  0.9294E+00  0.1375E+01
  -3.460  0.9182E+00  0.9182E+00  0.1394E+01
  -3.450  0.9065E+00  0.9065E+00  0.1412E+01
  -3.440  0.8944E+00  0.8944E+00  0.1430E+01
  -3.430  0.8818E+00  0.8818E+00  0.1447E+01
  -3.420  0.8688E+00  0.8688E+00  0.1465E+01
  -3.410  0.8554E+00  0.8554E+00  0.1482E+01
  -3.400  0.8417E+00  0.8417E+00  0.1499E+01
  -3.390  0.8275E+00  0.8275E+00  0.1515E+01
  -3.380  0.8131E+00  0.8131E+00  0.1532E+01
  -3.370  0.7983E+00  0.7984E+00  0.1548E+01
  -3.360  0.7833E+00  0.7833E+00  0.1563E+01
  -3.350  0.7680E+00  0.7680E+00  0.1579E+01
  -3.340  0.7525E+00  0.7525E+00  0.1594E+01
  -3.330  0.7368E+00  0.7368E+00  0.1608E+01
  -3.320  0.7209E+00  0.7209E+00  0.1623E+01
  -3.310  0.7048E+00  0.7048E+00  0.1637E+01
  -3.300  0.6886E+00  0.6886E+00  0.1651E+01
  -3.290  0.6723E+00  0.6723E+00  0.1664E+01
  -3.280  0.6560E+00  0.6560E+00  0.1677E+01
  -3.270  0.6396E+00  0.6396E+00  0.1690E+01
  -3.260  0.6232E+00  0.6232E+00  0.1702E+01
  -3.250  0.6067E+00  0.6067E+00  0.1715E+01
  -3.240  0.5904E+00  0.5904E+00  0.1726E+01
  -3.230  0.5740E+00  0.5740E+00  0.1738E+01
  -3.220  0.5578E+00  0.5578E+00  0.1749E+01
  -3.210  0.5416E+00  0.5416E+00  0.1760E+01
  -3.200  0.5256E+00  0.5256E+00  0.1770E+01
  -3.190  0.5097E+00  0.5097E+00  0.1781E+01
  -3.180  0.4939E+00  0.4939E+00  0.1790E+01
  -3.170  0.4784E+00  0.4784E+00  0.1800E+01
  -3.160  0.4630E+00  0.4630E+00  0.1809E+01
  -3.150  0.4478E+00  0.4478E+00  0.1818E+01
  -3.140  0.4328E+00  0.4328E+00  0.1827E+01
  -3.130  0.4181E+00  0.4181E+00  0.1835E+01
  -3.120  0.4036E+00  0.4036E+00  0.1843E+01
  -3.110  0.3893E+00  0.3893E+00  0.1851E+01
  -3.100  0.3753E+00  0.3753E+00  0.1859E+01
  -3.090  0.3615E+00  0.3615E+00  0.1866E+01
  -3.080  0.3481E+00  0.3481E+00  0.1873E+01
  -3.070  0.3348E+00  0.3348E+00  0.1879E+01
  -3.060  0.3219E+00  0.3219E+00  0.1886E+01
  -3.050  0.3092E+00  0.3092E+00  0.1892E+01
  -3.040  0.2968E+00  0.2968E+00  0.1898E+01
  -3.030  0.2847E+00  0.2847E+00  0.1904E+01
  -3.020  0.2729E+00  0.2729E+00  0.1909E+01
  -3.010  0.2614E+00  0.2614E+00  0.1914E+01
  -3.000  0.2501E+00  0.2501E+00  0.1919E+01
  -2.990  0.2392E+00  0.2392E+00  0.1924E+01
  -2.980  0.2285E+00  0.2285E+00  0.1929E+01
  -2.970  0.2181E+00  0.2181E+00  0.1933E+01
  -2.960  0.2080E+00  0.2080E+00  0.1937E+01
  -2.950  0.1981E+00  0.1981E+00  0.1941E+01
  -2.940  0.1886E+00  0.1886E+00  0.1945E+01
  -2.930  0.1793E+00  0.1793E+00  0.1949E+01
  -2.920  0.1703E+00  0.1703E+00  0.1952E+01
  -2.910  0.1616E+00  0.1616E+00  0.1955E+01
  -2.900  0.1532E+00  0.1532E+00  0.1958E+01
  -2.890  0.1451E+00  0.1451E+00  0.1961E+01
  -2.880  0.1372E+00  0.1372E+00  0.1964E+01
  -2.870  0.1296E+00  0.1296E+00  0.1967E+01
  -2.860  0.1222E+00  0.1223E+00  0.1969E+01
  -2.850  0.1152E+00  0.1152E+00  0.1971E+01
  -2.840  0.1084E+00  0.1084E+00  0.1973E+01
  -2.830  0.1019E+00  0.1019E+00  0.1976E+01
  -2.820  0.9561E-01  0.9561E-01  0.1977E+01
  -2.810  0.8961E-01  0.8961E-01  0.1979E+01
  -2.800  0.8386E-01  0.8386E-01  0.1981E+01
  -2.790  0.7837E-01  0.7837E-01  0.1982E+01
  -2.780  0.7313E-01  0.7313E-01  0.1984E+01
  -2.770  0.6814E-01  0.6814E-01  0.1985E+01
  -2.760  0.6339E-01  0.6339E-01  0.1987E+01
  -2.750  0.5888E-01  0.5888E-01  0.1988E+01
  -2.740  0.5460E-01  0.5460E-01  0.1989E+01
  -2.730  0.5055E-01  0.5055E-01  0.1990E+01
  -2.720  0.4672E-01  0.4672E-01  0.1991E+01
  -2.710  0.4311E-01  0.4311E-01  0.1992E+01
  -2.700  0.3971E-01  0.3971E-01  0.1992E+01
  -2.690  0.3651E-01  0.3651E-01  0.1993E+01
  -2.680  0.3351E-01  0.3351E-01  0.1994E+01
  -2.670  0.3071E-01  0.3071E-01  0.1994E+01
  -2.660  0.2808E-01  0.2808E-01  0.1995E+01
  -2.650  0.2564E-01  0.2564E-01  0.1996E+01
  -2.640  0.2336E-01  0.2336E-01  0.1996E+01
  -2.630  0.2124E-01  0.2124E-01  0.1996E+01
  -2.620  0.1928E-01  0.1928E-01  0.1997E+01
  -2.610  0.1747E-01  0.1747E-01  0.1997E+01
  -2.600  0.1579E-01  0.1579E-01  0.1997E+01
  -2.590  0.1425E-01  0.1425E-01  0.1998E+01
  -2.580  0.1283E-01  0.1283E-01  0.1998E+01
  -2.570  0.1153E-01  0.1153E-01  0.1998E+01
  -2.560  0.1035E-01  0.1035E-01  0.1998E+01
  -2.550  0.9260E-02  0.9260E-02  0.1999E+01
  -2.540  0.8271E-02  0.8271E-02  0.1999E+01
  -2.530  0.7372E-02  0.7372E-02  0.1999E+01
  -2.520  0.6557E-02  0.6558E-02  0.1999E+01
  -2.510  0.5820E-02  0.5820E-02  0.1999E+01
  -2.500  0.5155E-02  0.5155E-02  0.1999E+01
  -2.490  0.4556E-02  0.4556E-02  0.1999E+01
  -2.480  0.4018E-02  0.4018E-02  0.1999E+01
  -2.470  0.3535E-02  0.3535E-02  0.2000E+01
  -2.460  0.3104E-02  0.3104E-02  0.2000E+01
  -2.450  0.2719E-02  0.2719E-02  0.2000E+01
  -2.440  0.2377E-02  0.2377E-02  0.2000E+01
  -2.430  0.2073E-02  0.2073E-02  0.2000E+01
  -2.420  0.1804E-02  0.1804E-02  0.2000E+01
  -2.410  0.1566E-02  0.1566E-02  0.2000E+01
  -2.400  0.1357E-02  0.1357E-02  0.2000E+01
  -2.390  0.1173E-02  0.1173E-02  0.2000E+01
  -2.380  0.1011E-02  0.1011E-02  0.2000E+01
  -2.370  0.8702E-03  0.8702E-03  0.2000E+01
  -2.360  0.7469E-03  0.7469E-03  0.2000E+01
  -2.350  0.6396E-03  0.6397E-03  0.2000E+01
  -2.340  0.5465E-03  0.5465E-03  0.2000E+01
  -2.330  0.4658E-03  0.4659E-03  0.2000E+01
  -2.320  0.3962E-03  0.3962E-03  0.2000E+01
  -2.310  0.3361E-03  0.3361E-03  0.2000E+01
  -2.300  0.2845E-03  0.2845E-03  0.2000E+01
  -2.290  0.2402E-03  0.2402E-03  0.2000E+01
  -2.280  0.2023E-03  0.2023E-03  0.2000E+01
  -2.270  0.1700E-03  0.1700E-03  0.2000E+01
  -2.260  0.1426E-03  0.1426E-03  0.2000E+01
  -2.250  0.1192E-03  0.1192E-03  0.2000E+01
  -2.240  0.9948E-04  0.9948E-04  0.2000E+01
  -2.230  0.8280E-04  0.8280E-04  0.2000E+01
  -2.220  0.6875E-04  0.6875E-04  0.2000E+01
  -2.210  0.5695E-04  0.5695E-04  0.2000E+01
  -2.200  0.4706E-04  0.4706E-04  0.2000E+01
  -2.190  0.3879E-04  0.3879E-04  0.2000E+01
  -2.180  0.3189E-04  0.3189E-04  0.2000E+01
  -2.170  0.2616E-04  0.2616E-04  0.2000E+01
  -2.160  0.2141E-04  0.2141E-04  0.2000E+01
  -2.150  0.1747E-04  0.1747E-04  0.2000E+01
  -2.140  0.1423E-04  0.1423E-04  0.2000E+01
  -2.130  0.1156E-04  0.1156E-04  0.2000E+01
  -2.120  0.9362E-05  0.9362E-05  0.2000E+01
  -2.110  0.7566E-05  0.7566E-05  0.2000E+01
  -2.100  0.6100E-05  0.6100E-05  0.2000E+01
  -2.090  0.4905E-05  0.4906E-05  0.2000E+01
  -2.080  0.3935E-05  0.3935E-05  0.2000E+01
  -2.070  0.3149E-05  0.3149E-05  0.2000E+01
  -2.060  0.2513E-05  0.2513E-05  0.2000E+01
  -2.050  0.2001E-05  0.2001E-05  0.2000E+01
  -2.040  0.1589E-05  0.1589E-05  0.2000E+01
  -2.030  0.1259E-05  0.1259E-05  0.2000E+01
  -2.020  0.9948E-06  0.9948E-06  0.2000E+01
  -2.010  0.7841E-06  0.7841E-06  0.2000E+01
  -2.000  0.6165E-06  0.6165E-06  0.2000E+01
  -1.990  0.4835E-06  0.4835E-06  0.2000E+01
  -1.980  0.3782E-06  0.3782E-06  0.2000E+01
  -1.970  0.2951E-06  0.2951E-06  0.2000E+01
  -1.960  0.2297E-06  0.2297E-06  0.2000E+01
  -1.950  0.1783E-06  0.1783E-06  0.2000E+01
  -1.940  0.1381E-06  0.1381E-06  0.2000E+01
  -1.930  0.1066E-06  0.1066E-06  0.2000E+01
  -1.920  0.8214E-07  0.8215E-07  0.2000E+01
  -1.910  0.6312E-07  0.6312E-07  0.2000E+01
  -1.900  0.4838E-07  0.4838E-07  0.2000E+01
  -1.890  0.3699E-07  0.3699E-07  0.2000E+01
  -1.880  0.2820E-07  0.2820E-07  0.2000E+01
  -1.870  0.2145E-07  0.2145E-07  0.2000E+01
  -1.860  0.1627E-07  0.1627E-07  0.2000E+01
  -1.850  0.1231E-07  0.1231E-07  0.2000E+01
  -1.840  0.9294E-08  0.9294E-08  0.2000E+01
  -1.830  0.6996E-08  0.6997E-08  0.2000E+01
  -1.820  0.5253E-08  0.5253E-08  0.2000E+01
  -1.810  0.3934E-08  0.3934E-08  0.2000E+01
  -1.800  0.2939E-08  0.2939E-08  0.2000E+01
  -1.790  0.2190E-08  0.2190E-08  0.2000E+01
  -1.780  0.1627E-08  0.1627E-08  0.2000E+01
  -1.770  0.1206E-08  0.1206E-08  0.2000E+01
  -1.760  0.8917E-09  0.8917E-09  0.2000E+01
  -1.750  0.6575E-09  0.6575E-09  0.2000E+01
  -1.740  0.4836E-09  0.4836E-09  0.2000E+01
  -1.730  0.3547E-09  0.3547E-09  0.2000E+01
  -1.720  0.2595E-09  0.2595E-09  0.2000E+01
  -1.710  0.1894E-09  0.1894E-09  0.2000E+01
  -1.700  0.1378E-09  0.1378E-09  0.2000E+01
  -1.690  0.1001E-09  0.1001E-09  0.2000E+01
  -1.680  0.7245E-10  0.7246E-10  0.2000E+01
  -1.670  0.5232E-10  0.5233E-10  0.2000E+01
  -1.660  0.3769E-10  0.3769E-10  0.2000E+01
  -1.650  0.2708E-10  0.2708E-10  0.2000E+01
  -1.640  0.1940E-10  0.1940E-10  0.2000E+01
  -1.630  0.1386E-10  0.1386E-10  0.2000E+01
  -1.620  0.9882E-11  0.9883E-11  0.2000E+01
  -1.610  0.7026E-11  0.7026E-11  0.2000E+01
  -1.600  0.4981E-11  0.4982E-11  0.2000E+01
  -1.590  0.3523E-11  0.3523E-11  0.2000E+01
  -1.580  0.2485E-11  0.2485E-11  0.2000E+01
  -1.570  0.1748E-11  0.1748E-11  0.2000E+01
  -1.560  0.1227E-11  0.1227E-11  0.2000E+01
  -1.550  0.8583E-12  0.8584E-12  0.2000E+01
  -1.540  0.5991E-12  0.5991E-12  0.2000E+01
  -1.530  0.4170E-12  0.4171E-12  0.2000E+01
  -1.520  0.2896E-12  0.2896E-12  0.2000E+01
  -1.510  0.2005E-12  0.2005E-12  0.2000E+01
  -1.500  0.1385E-12  0.1385E-12  0.2000E+01
  -1.490  0.9539E-13  0.9539E-13  0.2000E+01
  -1.480  0.6553E-13  0.6554E-13  0.2000E+01
  -1.470  0.4490E-13  0.4491E-13  0.2000E+01
  -1.460  0.3069E-13  0.3069E-13  0.2000E+01
  -1.450  0.2092E-13  0.2092E-13  0.2000E+01
  -1.440  0.1422E-13  0.1422E-13  0.2000E+01
  -1.430  0.9640E-14  0.9641E-14  0.2000E+01
  -1.420  0.6519E-14  0.6519E-14  0.2000E+01
  -1.410  0.4396E-14  0.4397E-14  0.2000E+01
  -1.400  0.2957E-14  0.2957E-14  0.2000E+01
  -1.390  0.1984E-14  0.1984E-14  0.2000E+01
  -1.380  0.1327E-14  0.1327E-14  0.2000E+01
  -1.370  0.8857E-15  0.8858E-15  0.2000E+01
  -1.360  0.5895E-15  0.5895E-15  0.2000E+01
  -1.350  0.3913E-15  0.3913E-15  0.2000E+01
  -1.340  0.2590E-15  0.2591E-15  0.2000E+01
  -1.330  0.1710E-15  0.1710E-15  0.2000E+01
  -1.320  0.1126E-15  0.1126E-15  0.2000E+01
  -1.310  0.7397E-16  0.7397E-16  0.2000E+01
  -1.300  0.4845E-16  0.4845E-16  0.2000E+01
  -1.290  0.3165E-16  0.3165E-16  0.2000E+01
  -1.280  0.2062E-16  0.2062E-16  0.2000E+01
  -1.270  0.1340E-16  0.1340E-16  0.2000E+01
  -1.260  0.8685E-17  0.8686E-17  0.2000E+01
  -1.250  0.5614E-17  0.5614E-17  0.2000E+01
  -1.240  0.3619E-17  0.3619E-17  0.2000E+01
  -1.230  0.2327E-17  0.2327E-17  0.2000E+01
  -1.220  0.1492E-17  0.1492E-17  0.2000E+01
  -1.210  0.9541E-18  0.9542E-18  0.2000E+01
  -1.200  0.6086E-18  0.6086E-18  0.2000E+01
  -1.190  0.3871E-18  0.3871E-18  0.2000E+01
  -1.180  0.2456E-18  0.2456E-18  0.2000E+01
  -1.170  0.1554E-18  0.1554E-18  0.2000E+01
  -1.160  0.9806E-19  0.9806E-19  0.2000E+01
  -1.150  0.6171E-19  0.6172E-19  0.2000E+01
  -1.140  0.3874E-19  0.3874E-19  0.2000E+01
  -1.130  0.2425E-19  0.2425E-19  0.2000E+01
  -1.120  0.1514E-19  0.1514E-19  0.2000E+01
  -1.110  0.9427E-20  0.9428E-20  0.2000E+01
  -1.100  0.5855E-20  0.5855E-20  0.2000E+01
  -1.090  0.3626E-20  0.3626E-20  0.2000E+01
  -1.080  0.2240E-20  0.2240E-20  0.2000E+01
  -1.070  0.1380E-20  0.1380E-20  0.2000E+01
  -1.060  0.8478E-21  0.8478E-21  0.2000E+01
  -1.050  0.5195E-21  0.5195E-21  0.2000E+01
  -1.040  0.3175E-21  0.3175E-21  0.2000E+01
  -1.030  0.1935E-21  0.1935E-21  0.2000E+01
  -1.020  0.1176E-21  0.1176E-21  0.2000E+01
  -1.010  0.7131E-22  0.7131E-22  0.2000E+01
  -1.000  0.4311E-22  0.4312E-22  0.2000E+01
  -0.990  0.2600E-22  0.2600E-22  0.2000E+01
  -0.980  0.1564E-22  0.1564E-22  0.2000E+01
  -0.970  0.9378E-23  0.9378E-23  0.2000E+01
  -0.960  0.5610E-23  0.5610E-23  0.2000E+01
  -0.950  0.3347E-23  0.3347E-23  0.2000E+01
  -0.940  0.1991E-23  0.1991E-23  0.2000E+01
  -0.930  0.1182E-23  0.1182E-23  0.2000E+01
  -0.920  0.6992E-24  0.6993E-24  0.2000E+01
  -0.910  0.4127E-24  0.4127E-24  0.2000E+01
  -0.900  0.2429E-24  0.2429E-24  0.2000E+01
  -0.890  0.1426E-24  0.1426E-24  0.2000E+01
  -0.880  0.8349E-25  0.8350E-25  0.2000E+01
  -0.870  0.4875E-25  0.4876E-25  0.2000E+01
  -0.860  0.2839E-25  0.2839E-25  0.2000E+01
  -0.850  0.1649E-25  0.1649E-25  0.2000E+01
  -0.840  0.9551E-26  0.9552E-26  0.2000E+01
  -0.830  0.5518E-26  0.5518E-26  0.2000E+01
  -0.820  0.3179E-26  0.3179E-26  0.2000E+01
  -0.810  0.1827E-26  0.1827E-26  0.2000E+01
  -0.800  0.1047E-26  0.1047E-26  0.2000E+01
  -0.790  0.5982E-27  0.5982E-27  0.2000E+01
  -0.780  0.3410E-27  0.3410E-27  0.2000E+01
  -0.770  0.1938E-27  0.1938E-27  0.2000E+01
  -0.760  0.1099E-27  0.1099E-27  0.2000E+01
  -0.750  0.6212E-28  0.6213E-28  0.2000E+01
  -0.740  0.3503E-28  0.3503E-28  0.2000E+01
  -0.730  0.1970E-28  0.1970E-28  0.2000E+01
  -0.720  0.1105E-28  0.1105E-28  0.2000E+01
  -0.710  0.6180E-29  0.6181E-29  0.2000E+01
  -0.700  0.3448E-29  0.3448E-29  0.2000E+01
  -0.690  0.1918E-29  0.1918E-29  0.2000E+01
  -0.680  0.1064E-29  0.1064E-29  0.2000E+01
  -0.670  0.5890E-30  0.5890E-30  0.2000E+01
  -0.660  0.3250E-30  0.3251E-30  0.2000E+01
  -0.650  0.1789E-30  0.1789E-30  0.2000E+01
  -0.640  0.9821E-31  0.9821E-31  0.2000E+01
  -0.630  0.5376E-31  0.5377E-31  0.2000E+01
  -0.620  0.2935E-31  0.2936E-31  0.2000E+01
  -0.610  0.1598E-31  0.1598E-31  0.2000E+01
  -0.600  0.8680E-32  0.8680E-32  0.2000E+01
  -0.590  0.4701E-32  0.4701E-32  0.2000E+01
  -0.580  0.2539E-32  0.2539E-32  0.2000E+01
  -0.570  0.1368E-32  0.1368E-32  0.2000E+01
  -0.560  0.7348E-33  0.7349E-33  0.2000E+01
  -0.550  0.3937E-33  0.3937E-33  0.2000E+01
  -0.540  0.2104E-33  0.2104E-33  0.2000E+01
  -0.530  0.1121E-33  0.1121E-33  0.2000E+01
  -0.520  0.5958E-34  0.5959E-34  0.2000E+01
  -0.510  0.3158E-34  0.3159E-34  0.2000E+01
  -0.500  0.1670E-34  0.1670E-34  0.2000E+01
  -0.490  0.8802E-35  0.8803E-35  0.2000E+01
  -0.480  0.4628E-35  0.4628E-35  0.2000E+01
  -0.470  0.2427E-35  0.2427E-35  0.2000E+01
  -0.460  0.1269E-35  0.1269E-35  0.2000E+01
  -0.450  0.6619E-36  0.6620E-36  0.2000E+01
  -0.440  0.3443E-36  0.3443E-36  0.2000E+01
  -0.430  0.1786E-36  0.1786E-36  0.2000E+01
  -0.420  0.9240E-37  0.9241E-37  0.2000E+01
  -0.410  0.4768E-37  0.4768E-37  0.2000E+01
  -0.400  0.2453E-37  0.2454E-37  0.2000E+01
  -0.390  0.1259E-37  0.1259E-37  0.2000E+01
  -0.380  0.6444E-38  0.6444E-38  0.2000E+01
  -0.370  0.3289E-38  0.3289E-38  0.2000E+01
  -0.360  0.1674E-38  0.1675E-38  0.2000E+01
  -0.350  0.8501E-39  0.8501E-39  0.2000E+01
  -0.340  0.4304E-39  0.4305E-39  0.2000E+01
  -0.330  0.2173E-39  0.2174E-39  0.2000E+01
  -0.320  0.1095E-39  0.1095E-39  0.2000E+01
  -0.310  0.5497E-40  0.5498E-40  0.2000E+01
  -0.300  0.2754E-40  0.2754E-40  0.2000E+01
  -0.290  0.1376E-40  0.1376E-40  0.2000E+01
  -0.280  0.6853E-41  0.6854E-41  0.2000E+01
  -0.270  0.3405E-41  0.3405E-41  0.2000E+01
  -0.260  0.1687E-41  0.1687E-41  0.2000E+01
  -0.250  0.8338E-42  0.8339E-42  0.2000E+01
  -0.240  0.4110E-42  0.4110E-42  0.2000E+01
  -0.230  0.2020E-42  0.2020E-42  0.2000E+01
  -0.220  0.9902E-43  0.9903E-43  0.2000E+01
  -0.210  0.4841E-43  0.4841E-43  0.2000E+01
  -0.200  0.2360E-43  0.2361E-43  0.2000E+01
  -0.190  0.1148E-43  0.1148E-43  0.2000E+01
  -0.180  0.5566E-44  0.5566E-44  0.2000E+01
  -0.170  0.2692E-44  0.2692E-44  0.2000E+01
  -0.160  0.1298E-44  0.1299E-44  0.2000E+01
  -0.150  0.6246E-45  0.6247E-45  0.2000E+01
  -0.140  0.2997E-45  0.2997E-45  0.2000E+01
  -0.130  0.1434E-45  0.1434E-45  0.2000E+01
  -0.120  0.6841E-46  0.6842E-46  0.2000E+01
  -0.110  0.3256E-46  0.3256E-46  0.2000E+01
  -0.100  0.1545E-46  0.1545E-46  0.2000E+01
  -0.090  0.7313E-47  0.7314E-47  0.2000E+01
  -0.080  0.3452E-47  0.3452E-47  0.2000E+01
  -0.070  0.1625E-47  0.1625E-47  0.2000E+01
  -0.060  0.7630E-48  0.7631E-48  0.2000E+01
  -0.050  0.3573E-48  0.3573E-48  0.2000E+01
  -0.040  0.1668E-48  0.1669E-48  0.2000E+01
  -0.030  0.7770E-49  0.7771E-49  0.2000E+01
  -0.020  0.3609E-49  0.3609E-49  0.2000E+01
  -0.010  0.1672E-49  0.1672E-49  0.2000E+01
   0.000  0.7723E-50  0.7723E-50  0.2000E+01
   0.010  0.3558E-50  0.3558E-50  0.2000E+01
   0.020  0.1635E-50  0.1635E-50  0.2000E+01
   0.030  0.7491E-51  0.7492E-51  0.2000E+01
   0.040  0.3424E-51  0.3424E-51  0.2000E+01
   0.050  0.1560E-51  0.1561E-51  0.2000E+01
   0.060  0.7093E-52  0.7093E-52  0.2000E+01
   0.070  0.3215E-52  0.3216E-52  0.2000E+01
   0.080  0.1454E-52  0.1454E-52  0.2000E+01
   0.090  0.6554E-53  0.6555E-53  0.2000E+01
   0.100  0.2947E-53  0.2947E-53  0.2000E+01
   0.110  0.1322E-53  0.1322E-53  0.2000E+01
   0.120  0.5911E-54  0.5912E-54  0.2000E+01
   0.130  0.2637E-54  0.2637E-54  0.2000E+01
   0.140  0.1173E-54  0.1173E-54  0.2000E+01
   0.150  0.5203E-55  0.5204E-55  0.2000E+01
   0.160  0.2302E-55  0.2302E-55  0.2000E+01
   0.170  0.1016E-55  0.1016E-55  0.2000E+01
   0.180  0.4470E-56  0.4471E-56  0.2000E+01
   0.190  0.1962E-56  0.1962E-56  0.2000E+01
   0.200  0.8587E-57  0.8588E-57  0.2000E+01
   0.210  0.3748E-57  0.3749E-57  0.2000E+01
   0.220  0.1632E-57  0.1632E-57  0.2000E+01
   0.230  0.7085E-58  0.7085E-58  0.2000E+01
   0.240  0.3068E-58  0.3068E-58  0.2000E+01
   0.250  0.1325E-58  0.1325E-58  0.2000E+01
   0.260  0.5705E-59  0.5705E-59  0.2000E+01
   0.270  0.2450E-59  0.2450E-59  0.2000E+01
   0.280  0.1050E-59  0.1050E-59  0.2000E+01
   0.290  0.4483E-60  0.4484E-60  0.2000E+01
   0.300  0.1910E-60  0.1910E-60  0.2000E+01
   0.310  0.8116E-61  0.8117E-61  0.2000E+01
   0.320  0.3439E-61  0.3439E-61  0.2000E+01
   0.330  0.1453E-61  0.1453E-61  0.2000E+01
   0.340  0.6125E-62  0.6126E-62  0.2000E+01
   0.350  0.2575E-62  0.2575E-62  0.2000E+01
   0.360  0.1079E-62  0.1079E-62  0.2000E+01
   0.370  0.4512E-63  0.4512E-63  0.2000E+01
   0.380  0.1881E-63  0.1881E-63  0.2000E+01
   0.390  0.7822E-64  0.7823E-64  0.2000E+01
   0.400  0.3244E-64  0.3244E-64  0.2000E+01
   0.410  0.1342E-64  0.1342E-64  0.2000E+01
   0.420  0.5533E-65  0.5534E-65  0.2000E+01
   0.430  0.2276E-65  0.2276E-65  0.2000E+01
   0.440  0.9337E-66  0.9338E-66  0.2000E+01
   0.450  0.3820E-66  0.3820E-66  0.2000E+01
   0.460  0.1559E-66  0.1559E-66  0.2000E+01
   0.470  0.6343E-67  0.6343E-67  0.2000E+01
   0.480  0.2574E-67  0.2574E-67  0.2000E+01
   0.490  0.1042E-67  0.1042E-67  0.2000E+01
   0.500  0.4205E-68  0.4205E-68  0.2000E+01
   0.510  0.1693E-68  0.1693E-68  0.2000E+01
   0.520  0.6796E-69  0.6797E-69  0.2000E+01
   0.530  0.2721E-69  0.2721E-69  0.2000E+01
   0.540  0.1087E-69  0.1087E-69  0.2000E+01
   0.550  0.4327E-70  0.4327E-70  0.2000E+01
   0.560  0.1718E-70  0.1719E-70  0.2000E+01
   0.570  0.6806E-71  0.6807E-71  0.2000E+01
   0.580  0.2689E-71  0.2689E-71  0.2000E+01
   0.590  0.1059E-71  0.1059E-71  0.2000E+01
   0.600  0.4161E-72  0.4162E-72  0.2000E+01
   0.610  0.1631E-72  0.1631E-72  0.2000E+01
   0.620  0.6372E-73  0.6373E-73  0.2000E+01
   0.630  0.2483E-73  0.2483E-73  0.2000E+01
   0.640  0.9652E-74  0.9653E-74  0.2000E+01
   0.650  0.3741E-74  0.3742E-74  0.2000E+01
   0.660  0.1446E-74  0.1446E-74  0.2000E+01
   0.670  0.5576E-75  0.5576E-75  0.2000E+01
   0.680  0.2144E-75  0.2144E-75  0.2000E+01
   0.690  0.8221E-76  0.8221E-76  0.2000E+01
   0.700  0.3144E-76  0.3144E-76  0.2000E+01
   0.710  0.1199E-76  0.1199E-76  0.2000E+01
   0.720  0.4561E-77  0.4561E-77  0.2000E+01
   0.730  0.1730E-77  0.1730E-77  0.2000E+01
   0.740  0.6545E-78  0.6545E-78  0.2000E+01
   0.750  0.2469E-78  0.2470E-78  0.2000E+01
   0.760  0.9291E-79  0.9292E-79  0.2000E+01
   0.770  0.3487E-79  0.3487E-79  0.2000E+01
   0.780  0.1305E-79  0.1305E-79  0.2000E+01
   0.790  0.4870E-80  0.4871E-80  0.2000E+01
   0.800  0.1813E-80  0.1813E-80  0.2000E+01
   0.810  0.6731E-81  0.6732E-81  0.2000E+01
   0.820  0.2493E-81  0.2493E-81  0.2000E+01
   0.830  0.9209E-82  0.9210E-82  0.2000E+01
   0.840  0.3396E-82  0.3397E-82  0.2000E+01
   0.850  0.1253E-82  0.1253E-82  0.2000E+01
   0.860  0.4643E-83  0.4643E-83  0.2000E+01
   0.870  0.1750E-83  0.1751E-83  0.2000E+01
   0.880  0.6925E-84  0.6926E-84  0.2000E+01
   0.890  0.3070E-84  0.3071E-84  0.2000E+01
   0.900  0.1681E-84  0.1682E-84  0.2000E+01
   0.910  0.1216E-84  0.1216E-84  0.2000E+01
   0.920  0.1155E-84  0.1155E-84  0.2000E+01
   0.930  0.1434E-84  0.1434E-84  0.2000E+01
   0.940  0.2367E-84  0.2367E-84  0.2000E+01
   0.950  0.5002E-84  0.5001E-84  0.2000E+01
   0.960  0.1228E-83  0.1228E-83  0.2000E+01
   0.970  0.3230E-83  0.3229E-83  0.2000E+01
   0.980  0.8714E-83  0.8713E-83  0.2000E+01
   0.990  0.2370E-82  0.2370E-82  0.2000E+01
   1.000  0.6454E-82  0.6453E-82  0.2000E+01
   1.010  0.1755E-81  0.1755E-81  0.2000E+01
   1.020  0.4764E-81  0.4764E-81  0.2000E+01
   1.030  0.1290E-80  0.1290E-80  0.2000E+01
   1.040  0.3482E-80  0.3482E-80  0.2000E+01
   1.050  0.9378E-80  0.9377E-80  0.2000E+01
   1.060  0.2519E-79  0.2518E-79  0.2000E+01
   1.070  0.6746E-79  0.6746E-79  0.2000E+01
   1.080  0.1802E-78  0.1802E-78  0.2000E+01
   1.090  0.4801E-78  0.4801E-78  0.2000E+01
   1.100  0.1276E-77  0.1276E-77  0.2000E+01
   1.110  0.3380E-77  0.3380E-77  0.2000E+01
   1.120  0.8934E-77  0.8933E-77  0.2000E+01
   1.130  0.2355E-76  0.2354E-76  0.2000E+01
   1.140  0.6189E-76  0.6189E-76  0.2000E+01
   1.150  0.1623E-75  0.1622E-75  0.2000E+01
   1.160  0.4242E-75  0.4242E-75  0.2000E+01
   1.170  0.1106E-74  0.1106E-74  0.2000E+01
   1.180  0.2877E-74  0.2876E-74  0.2000E+01
   1.190  0.7461E-74  0.7460E-74  0.2000E+01
   1.200  0.1930E-73  0.1930E-73  0.2000E+01
   1.210  0.4978E-73  0.4978E-73  0.2000E+01
   1.220  0.1281E-72  0.1281E-72  0.2000E+01
   1.230  0.3286E-72  0.3286E-72  0.2000E+01
   1.240  0.8408E-72  0.8408E-72  0.2000E+01
   1.250  0.2146E-71  0.2146E-71  0.2000E+01
   1.260  0.5462E-71  0.5461E-71  0.2000E+01
   1.270  0.1386E-70  0.1386E-70  0.2000E+01
   1.280  0.3510E-70  0.3509E-70  0.2000E+01
   1.290  0.8861E-70  0.8860E-70  0.2000E+01
   1.300  0.2231E-69  0.2231E-69  0.2000E+01
   1.310  0.5603E-69  0.5603E-69  0.2000E+01
   1.320  0.1403E-68  0.1403E-68  0.2000E+01
   1.330  0.3505E-68  0.3505E-68  0.2000E+01
   1.340  0.8732E-68  0.8731E-68  0.2000E+01
   1.350  0.2169E-67  0.2169E-67  0.2000E+01
   1.360  0.5375E-67  0.5375E-67  0.2000E+01
   1.370  0.1328E-66  0.1328E-66  0.2000E+01
   1.380  0.3273E-66  0.3273E-66  0.2000E+01
   1.390  0.8045E-66  0.8045E-66  0.2000E+01
   1.400  0.1972E-65  0.1972E-65  0.2000E+01
   1.410  0.4821E-65  0.4821E-65  0.2000E+01
   1.420  0.1176E-64  0.1175E-64  0.2000E+01
   1.430  0.2858E-64  0.2858E-64  0.2000E+01
   1.440  0.6932E-64  0.6931E-64  0.2000E+01
   1.450  0.1677E-63  0.1676E-63  0.2000E+01
   1.460  0.4044E-63  0.4044E-63  0.2000E+01
   1.470  0.9728E-63  0.9728E-63  0.2000E+01
   1.480  0.2334E-62  0.2334E-62  0.2000E+01
   1.490  0.5585E-62  0.5584E-62  0.2000E+01
   1.500  0.1333E-61  0.1333E-61  0.2000E+01
   1.510  0.3172E-61  0.3172E-61  0.2000E+01
   1.520  0.7529E-61  0.7528E-61  0.2000E+01
   1.530  0.1782E-60  0.1782E-60  0.2000E+01
   1.540  0.4208E-60  0.4207E-60  0.2000E+01
   1.550  0.9907E-60  0.9906E-60  0.2000E+01
   1.560  0.2326E-59  0.2326E-59  0.2000E+01
   1.570  0.5448E-59  0.5448E-59  0.2000E+01
   1.580  0.1273E-58  0.1272E-58  0.2000E+01
   1.590  0.2964E-58  0.2964E-58  0.2000E+01
   1.600  0.6887E-58  0.6886E-58  0.2000E+01
   1.610  0.1596E-57  0.1596E-57  0.2000E+01
   1.620  0.3687E-57  0.3687E-57  0.2000E+01
   1.630  0.8497E-57  0.8497E-57  0.2000E+01
   1.640  0.1953E-56  0.1953E-56  0.2000E+01
   1.650  0.4477E-56  0.4477E-56  0.2000E+01
   1.660  0.1023E-55  0.1023E-55  0.2000E+01
   1.670  0.2333E-55  0.2333E-55  0.2000E+01
   1.680  0.5306E-55  0.5306E-55  0.2000E+01
   1.690  0.1203E-54  0.1203E-54  0.2000E+01
   1.700  0.2722E-54  0.2721E-54  0.2000E+01
   1.710  0.6139E-54  0.6138E-54  0.2000E+01
   1.720  0.1381E-53  0.1381E-53  0.2000E+01
   1.730  0.3098E-53  0.3098E-53  0.2000E+01
   1.740  0.6933E-53  0.6933E-53  0.2000E+01
   1.750  0.1547E-52  0.1547E-52  0.2000E+01
   1.760  0.3444E-52  0.3443E-52  0.2000E+01
   1.770  0.7644E-52  0.7643E-52  0.2000E+01
   1.780  0.1692E-51  0.1692E-51  0.2000E+01
   1.790  0.3736E-51  0.3736E-51  0.2000E+01
   1.800  0.8226E-51  0.8226E-51  0.2000E+01
   1.810  0.1807E-50  0.1806E-50  0.2000E+01
   1.820  0.3957E-50  0.3956E-50  0.2000E+01
   1.830  0.8642E-50  0.8642E-50  0.2000E+01
   1.840  0.1883E-49  0.1883E-49  0.2000E+01
   1.850  0.4091E-49  0.4090E-49  0.2000E+01
   1.860  0.8863E-49  0.8863E-49  0.2000E+01
   1.870  0.1915E-48  0.1915E-48  0.2000E+01
   1.880  0.4128E-48  0.4128E-48  0.2000E+01
   1.890  0.8874E-48  0.8873E-48  0.2000E+01
   1.900  0.1902E-47  0.1902E-47  0.2000E+01
   1.910  0.4067E-47  0.4067E-47  0.2000E+01
   1.920  0.8672E-47  0.8672E-47  0.2000E+01
   1.930  0.1844E-46  0.1844E-46  0.2000E+01
   1.940  0.3912E-46  0.3911E-46  0.2000E+01
   1.950  0.8274E-46  0.8274E-46  0.2000E+01
   1.960  0.1745E-45  0.1745E-45  0.2000E+01
   1.970  0.3672E-45  0.3672E-45  0.2000E+01
   1.980  0.7706E-45  0.7706E-45  0.2000E+01
   1.990  0.1613E-44  0.1613E-44  0.2000E+01
   2.000  0.3366E-44  0.3366E-44  0.2000E+01
   2.010  0.7006E-44  0.7006E-44  0.2000E+01
   2.020  0.1455E-43  0.1454E-43  0.2000E+01
   2.030  0.3012E-43  0.3011E-43  0.2000E+01
   2.040  0.6219E-43  0.6219E-43  0.2000E+01
   2.050  0.1281E-42  0.1281E-42  0.2000E+01
   2.060  0.2631E-42  0.2630E-42  0.2000E+01
   2.070  0.5389E-42  0.5388E-42  0.2000E+01
   2.080  0.1101E-41  0.1101E-41  0.2000E+01
   2.090  0.2243E-41  0.2243E-41  0.2000E+01
   2.100  0.4558E-41  0.4558E-41  0.2000E+01
   2.110  0.9238E-41  0.9237E-41  0.2000E+01
   2.120  0.1867E-40  0.1867E-40  0.2000E+01
   2.130  0.3764E-40  0.3764E-40  0.2000E+01
   2.140  0.7568E-40  0.7567E-40  0.2000E+01
   2.150  0.1517E-39  0.1517E-39  0.2000E+01
   2.160  0.3035E-39  0.3034E-39  0.2000E+01
   2.170  0.6052E-39  0.6052E-39  0.2000E+01
   2.180  0.1204E-38  0.1204E-38  0.2000E+01
   2.190  0.2388E-38  0.2388E-38  0.2000E+01
   2.200  0.4725E-38  0.4725E-38  0.2000E+01
   2.210  0.9324E-38  0.9324E-38  0.2000E+01
   2.220  0.1835E-37  0.1835E-37  0.2000E+01
   2.230  0.3602E-37  0.3601E-37  0.2000E+01
   2.240  0.7050E-37  0.7050E-37  0.2000E+01
   2.250  0.1376E-36  0.1376E-36  0.2000E+01
   2.260  0.2680E-36  0.2680E-36  0.2000E+01
   2.270  0.5205E-36  0.5204E-36  0.2000E+01
   2.280  0.1008E-35  0.1008E-35  0.2000E+01
   2.290  0.1947E-35  0.1947E-35  0.2000E+01
   2.300  0.3751E-35  0.3751E-35  0.2000E+01
   2.310  0.7207E-35  0.7206E-35  0.2000E+01
   2.320  0.1381E-34  0.1381E-34  0.2000E+01
   2.330  0.2639E-34  0.2639E-34  0.2000E+01
   2.340  0.5030E-34  0.5030E-34  0.2000E+01
   2.350  0.9562E-34  0.9561E-34  0.2000E+01
   2.360  0.1813E-33  0.1813E-33  0.2000E+01
   2.370  0.3428E-33  0.3428E-33  0.2000E+01
   2.380  0.6464E-33  0.6464E-33  0.2000E+01
   2.390  0.1216E-32  0.1216E-32  0.2000E+01
   2.400  0.2280E-32  0.2280E-32  0.2000E+01
   2.410  0.4266E-32  0.4266E-32  0.2000E+01
   2.420  0.7960E-32  0.7960E-32  0.2000E+01
   2.430  0.1481E-31  0.1481E-31  0.2000E+01
   2.440  0.2749E-31  0.2749E-31  0.2000E+01
   2.450  0.5088E-31  0.5088E-31  0.2000E+01
   2.460  0.9393E-31  0.9393E-31  0.2000E+01
   2.470  0.1729E-30  0.1729E-30  0.2000E+01
   2.480  0.3176E-30  0.3176E-30  0.2000E+01
   2.490  0.5816E-30  0.5816E-30  0.2000E+01
   2.500  0.1062E-29  0.1062E-29  0.2000E+01
   2.510  0.1935E-29  0.1935E-29  0.2000E+01
   2.520  0.3516E-29  0.3516E-29  0.2000E+01
   2.530  0.6370E-29  0.6370E-29  0.2000E+01
   2.540  0.1151E-28  0.1151E-28  0.2000E+01
   2.550  0.2075E-28  0.2075E-28  0.2000E+01
   2.560  0.3730E-28  0.3730E-28  0.2000E+01
   2.570  0.6687E-28  0.6687E-28  0.2000E+01
   2.580  0.1196E-27  0.1196E-27  0.2000E+01
   2.590  0.2132E-27  0.2132E-27  0.2000E+01
   2.600  0.3793E-27  0.3792E-27  0.2000E+01
   2.610  0.6727E-27  0.6727E-27  0.2000E+01
   2.620  0.1190E-26  0.1190E-26  0.2000E+01
   2.630  0.2100E-26  0.2100E-26  0.2000E+01
   2.640  0.3696E-26  0.3696E-26  0.2000E+01
   2.650  0.6486E-26  0.6486E-26  0.2000E+01
   2.660  0.1135E-25  0.1135E-25  0.2000E+01
   2.670  0.1982E-25  0.1982E-25  0.2000E+01
   2.680  0.3452E-25  0.3451E-25  0.2000E+01
   2.690  0.5994E-25  0.5994E-25  0.2000E+01
   2.700  0.1038E-24  0.1038E-24  0.2000E+01
   2.710  0.1793E-24  0.1793E-24  0.2000E+01
   2.720  0.3090E-24  0.3089E-24  0.2000E+01
   2.730  0.5309E-24  0.5308E-24  0.2000E+01
   2.740  0.9098E-24  0.9097E-24  0.2000E+01
   2.750  0.1555E-23  0.1555E-23  0.2000E+01
   2.760  0.2651E-23  0.2651E-23  0.2000E+01
   2.770  0.4507E-23  0.4506E-23  0.2000E+01
   2.780  0.7642E-23  0.7641E-23  0.2000E+01
   2.790  0.1292E-22  0.1292E-22  0.2000E+01
   2.800  0.2180E-22  0.2180E-22  0.2000E+01
   2.810  0.3667E-22  0.3667E-22  0.2000E+01
   2.820  0.6152E-22  0.6152E-22  0.2000E+01
   2.830  0.1029E-21  0.1029E-21  0.2000E+01
   2.840  0.1718E-21  0.1718E-21  0.2000E+01
   2.850  0.2860E-21  0.2860E-21  0.2000E+01
   2.860  0.4748E-21  0.4748E-21  0.2000E+01
   2.870  0.7861E-21  0.7861E-21  0.2000E+01
   2.880  0.1298E-20  0.1298E-20  0.2000E+01
   2.890  0.2138E-20  0.2138E-20  0.2000E+01
   2.900  0.3512E-20  0.3512E-20  0.2000E+01
   2.910  0.5754E-20  0.5754E-20  0.2000E+01
   2.920  0.9402E-20  0.9402E-20  0.2000E+01
   2.930  0.1532E-19  0.1532E-19  0.2000E+01
   2.940  0.2491E-19  0.2490E-19  0.2000E+01
   2.950  0.4037E-19  0.4037E-19  0.2000E+01
   2.960  0.6528E-19  0.6528E-19  0.2000E+01
   2.970  0.1053E-18  0.1053E-18  0.2000E+01
   2.980  0.1693E-18  0.1693E-18  0.2000E+01
   2.990  0.2716E-18  0.2716E-18  0.2000E+01
   3.000  0.4345E-18  0.4345E-18  0.2000E+01
   3.010  0.6933E-18  0.6933E-18  0.2000E+01
   3.020  0.1103E-17  0.1103E-17  0.2000E+01
   3.030  0.1751E-17  0.1751E-17  0.2000E+01
   3.040  0.2772E-17  0.2772E-17  0.2000E+01
   3.050  0.4377E-17  0.4377E-17  0.2000E+01
   3.060  0.6893E-17  0.6893E-17  0.2000E+01
   3.070  0.1083E-16  0.1083E-16  0.2000E+01
   3.080  0.1696E-16  0.1696E-16  0.2000E+01
   3.090  0.2650E-16  0.2650E-16  0.2000E+01
   3.100  0.4129E-16  0.4129E-16  0.2000E+01
   3.110  0.6417E-16  0.6417E-16  0.2000E+01
   3.120  0.9947E-16  0.9947E-16  0.2000E+01
   3.130  0.1538E-15  0.1538E-15  0.2000E+01
   3.140  0.2371E-15  0.2371E-15  0.2000E+01
   3.150  0.3647E-15  0.3647E-15  0.2000E+01
   3.160  0.5594E-15  0.5594E-15  0.2000E+01
   3.170  0.8558E-15  0.8557E-15  0.2000E+01
   3.180  0.1306E-14  0.1306E-14  0.2000E+01
   3.190  0.1987E-14  0.1987E-14  0.2000E+01
   3.200  0.3016E-14  0.3016E-14  0.2000E+01
   3.210  0.4566E-14  0.4566E-14  0.2000E+01
   3.220  0.6894E-14  0.6894E-14  0.2000E+01
   3.230  0.1038E-13  0.1038E-13  0.2000E+01
   3.240  0.1559E-13  0.1559E-13  0.2000E+01
   3.250  0.2336E-13  0.2336E-13  0.2000E+01
   3.260  0.3490E-13  0.3490E-13  0.2000E+01
   3.270  0.5202E-13  0.5201E-13  0.2000E+01
   3.280  0.7731E-13  0.7731E-13  0.2000E+01
   3.290  0.1146E-12  0.1146E-12  0.2000E+01
   3.300  0.1695E-12  0.1695E-12  0.2000E+01
   3.310  0.2499E-12  0.2499E-12  0.2000E+01
   3.320  0.3676E-12  0.3676E-12  0.2000E+01
   3.330  0.5392E-12  0.5392E-12  0.2000E+01
   3.340  0.7890E-12  0.7889E-12  0.2000E+01
   3.350  0.1151E-11  0.1151E-11  0.2000E+01
   3.360  0.1676E-11  0.1676E-11  0.2000E+01
   3.370  0.2433E-11  0.2433E-11  0.2000E+01
   3.380  0.3523E-11  0.3523E-11  0.2000E+01
   3.390  0.5087E-11  0.5087E-11  0.2000E+01
   3.400  0.7328E-11  0.7328E-11  0.2000E+01
   3.410  0.1053E-10  0.1053E-10  0.2000E+01
   3.420  0.1509E-10  0.1509E-10  0.2000E+01
   3.430  0.2156E-10  0.2156E-10  0.2000E+01
   3.440  0.3073E-10  0.3073E-10  0.2000E+01
   3.450  0.4369E-10  0.4369E-10  0.2000E+01
   3.460  0.6196E-10  0.6196E-10  0.2000E+01
   3.470  0.8763E-10  0.8763E-10  0.2000E+01
   3.480  0.1236E-09  0.1236E-09  0.2000E+01
   3.490  0.1739E-09  0.1739E-09  0.2000E+01
   3.500  0.2441E-09  0.2441E-09  0.2000E+01
   3.510  0.3416E-09  0.3416E-09  0.2000E+01
   3.520  0.4770E-09  0.4769E-09  0.2000E+01
   3.530  0.6641E-09  0.6641E-09  0.2000E+01
   3.540  0.9223E-09  0.9223E-09  0.2000E+01
   3.550  0.1278E-08  0.1278E-08  0.2000E+01
   3.560  0.1765E-08  0.1765E-08  0.2000E+01
   3.570  0.2433E-08  0.2432E-08  0.2000E+01
   3.580  0.3343E-08  0.3343E-08  0.2000E+01
   3.590  0.4583E-08  0.4583E-08  0.2000E+01
   3.600  0.6267E-08  0.6267E-08  0.2000E+01
   3.610  0.8547E-08  0.8547E-08  0.2000E+01
   3.620  0.1163E-07  0.1163E-07  0.2000E+01
   3.630  0.1577E-07  0.1577E-07  0.2000E+01
   3.640  0.2135E-07  0.2135E-07  0.2000E+01
   3.650  0.2881E-07  0.2881E-07  0.2000E+01
   3.660  0.3879E-07  0.3879E-07  0.2000E+01
   3.670  0.5208E-07  0.5208E-07  0.2000E+01
   3.680  0.6975E-07  0.6975E-07  0.2000E+01
   3.690  0.9317E-07  0.9317E-07  0.2000E+01
   3.700  0.1241E-06  0.1241E-06  0.2000E+01
   3.710  0.1650E-06  0.1650E-06  0.2000E+01
   3.720  0.2187E-06  0.2187E-06  0.2000E+01
   3.730  0.2891E-06  0.2891E-06  0.2000E+01
   3.740  0.3812E-06  0.3812E-06  0.2000E+01
   3.750  0.5014E-06  0.5014E-06  0.2000E+01
   3.760  0.6578E-06  0.6578E-06  0.2000E+01
   3.770  0.8608E-06  0.8607E-06  0.2000E+01
   3.780  0.1123E-05  0.1123E-05  0.2000E+01
   3.790  0.1462E-05  0.1462E-05  0.2000E+01
   3.800  0.1899E-05  0.1899E-05  0.2000E+01
   3.810  0.2459E-05  0.2459E-05  0.2000E+01
   3.820  0.3177E-05  0.3177E-05  0.2000E+01
   3.830  0.4093E-05  0.4093E-05  0.2000E+01
   3.840  0.5260E-05  0.5260E-05  0.2000E+01
   3.850  0.6742E-05  0.6742E-05  0.2000E+01
   3.860  0.8620E-05  0.8620E-05  0.2000E+01
   3.870  0.1099E-04  0.1099E-04  0.2000E+01
   3.880  0.1398E-04  0.1398E-04  0.2000E+01
   3.890  0.1774E-04  0.1774E-04  0.2000E+01
   3.900  0.2245E-04  0.2245E-04  0.2000E+01
   3.910  0.2833E-04  0.2833E-04  0.2000E+01
   3.920  0.3567E-04  0.3567E-04  0.2000E+01
   3.930  0.4479E-04  0.4479E-04  0.2000E+01
   3.940  0.5611E-04  0.5611E-04  0.2000E+01
   3.950  0.7010E-04  0.7009E-04  0.2000E+01
   3.960  0.8735E-04  0.8735E-04  0.2000E+01
   3.970  0.1086E-03  0.1086E-03  0.2000E+01
   3.980  0.1346E-03  0.1346E-03  0.2000E+01
   3.990  0.1665E-03  0.1665E-03  0.2000E+01
   4.000  0.2053E-03  0.2053E-03  0.2000E+01
   4.010  0.2526E-03  0.2526E-03  0.2000E+01
   4.020  0.3100E-03  0.3100E-03  0.2000E+01
   4.030  0.3794E-03  0.3794E-03  0.2000E+01
   4.040  0.4633E-03  0.4633E-03  0.2000E+01
   4.050  0.5642E-03  0.5642E-03  0.2000E+01
   4.060  0.6853E-03  0.6853E-03  0.2000E+01
   4.070  0.8304E-03  0.8304E-03  0.2000E+01
   4.080  0.1004E-02  0.1004E-02  0.2000E+01
   4.090  0.1210E-02  0.1210E-02  0.2000E+01
   4.100  0.1455E-02  0.1455E-02  0.2000E+01
   4.110  0.1745E-02  0.1745E-02  0.2000E+01
   4.120  0.2087E-02  0.2087E-02  0.2000E+01
   4.130  0.2491E-02  0.2491E-02  0.2000E+01
   4.140  0.2965E-02  0.2965E-02  0.2000E+01
   4.150  0.3520E-02  0.3520E-02  0.2000E+01
   4.160  0.4169E-02  0.4169E-02  0.2001E+01
   4.170  0.4925E-02  0.4925E-02  0.2001E+01
   4.180  0.5803E-02  0.5803E-02  0.2001E+01
   4.190  0.6820E-02  0.6820E-02  0.2001E+01
   4.200  0.7996E-02  0.7996E-02  0.2001E+01
   4.210  0.9351E-02  0.9351E-02  0.2001E+01
   4.220  0.1091E-01  0.1091E-01  0.2001E+01
   4.230  0.1269E-01  0.1269E-01  0.2002E+01
   4.240  0.1473E-01  0.1473E-01  0.2002E+01
   4.250  0.1706E-01  0.1706E-01  0.2002E+01
   4.260  0.1970E-01  0.1970E-01  0.2003E+01
   4.270  0.2269E-01  0.2269E-01  0.2003E+01
   4.280  0.2608E-01  0.2608E-01  0.2004E+01
   4.290  0.2989E-01  0.2989E-01  0.2004E+01
   4.300  0.3418E-01  0.3418E-01  0.2005E+01
   4.310  0.3899E-01  0.3899E-01  0.2006E+01
   4.320  0.4436E-01  0.4436E-01  0.2007E+01
   4.330  0.5034E-01  0.5034E-01  0.2008E+01
   4.340  0.5700E-01  0.5700E-01  0.2009E+01
   4.350  0.6437E-01  0.6437E-01  0.2010E+01
   4.360  0.7252E-01  0.7252E-01  0.2012E+01
   4.370  0.8150E-01  0.8150E-01  0.2013E+01
   4.380  0.9138E-01  0.9138E-01  0.2015E+01
   4.390  0.1022E+00  0.1022E+00  0.2017E+01
   4.400  0.1140E+00  0.1140E+00  0.2019E+01
   4.410  0.1269E+00  0.1269E+00  0.2022E+01
   4.420  0.1409E+00  0.1409E+00  0.2025E+01
   4.430  0.1560E+00  0.1560E+00  0.2028E+01
   4.440  0.1724E+00  0.1724E+00  0.2031E+01
   4.450  0.1901E+00  0.1901E+00  0.2035E+01
   4.460  0.2090E+00  0.2090E+00  0.2039E+01
   4.470  0.2293E+00  0.2293E+00  0.2044E+01
   4.480  0.2510E+00  0.2510E+00  0.2049E+01
   4.490  0.2740E+00  0.2740E+00  0.2054E+01
   4.500  0.2985E+00  0.2985E+00  0.2060E+01
   4.510  0.3244E+00  0.3244E+00  0.2067E+01
   4.520  0.3518E+00  0.3518E+00  0.2074E+01
   4.530  0.3805E+00  0.3805E+00  0.2081E+01
   4.540  0.4107E+00  0.4107E+00  0.2090E+01
   4.550  0.4423E+00  0.4423E+00  0.2098E+01
   4.560  0.4752E+00  0.4752E+00  0.2108E+01
   4.570  0.5095E+00  0.5095E+00  0.2118E+01
   4.580  0.5449E+00  0.5449E+00  0.2129E+01
   4.590  0.5816E+00  0.5816E+00  0.2141E+01
   4.600  0.6194E+00  0.6194E+00  0.2153E+01
   4.610  0.6581E+00  0.6581E+00  0.2166E+01
   4.620  0.6978E+00  0.6978E+00  0.2180E+01
   4.630  0.7383E+00  0.7383E+00  0.2195E+01
   4.640  0.7796E+00  0.7795E+00  0.2211E+01
   4.650  0.8213E+00  0.8213E+00  0.2227E+01
   4.660  0.8635E+00  0.8635E+00  0.2244E+01
   4.670  0.9061E+00  0.9061E+00  0.2262E+01
   4.680  0.9487E+00  0.9487E+00  0.2281E+01
   4.690  0.9914E+00  0.9914E+00  0.2301E+01
   4.700  0.1034E+01  0.1034E+01  0.2322E+01
   4.710  0.1076E+01  0.1076E+01  0.2343E+01
   4.720  0.1118E+01  0.1118E+01  0.2366E+01
   4.730  0.1159E+01  0.1159E+01  0.2389E+01
   4.740  0.1200E+01  0.1200E+01  0.2413E+01
   4.750  0.1239E+01  0.1239E+01  0.2438E+01
   4.760  0.1278E+01  0.1278E+01  0.2463E+01
   4.770  0.1315E+01  0.1315E+01  0.2490E+01
   4.780  0.1351E+01  0.1351E+01  0.2517E+01
   4.790  0.1386E+01  0.1386E+01  0.2544E+01
   4.800  0.1419E+01  0.1419E+01  0.2573E+01
   4.810  0.1450E+01  0.1450E+01  0.2602E+01
   4.820  0.1480E+01  0.1480E+01  0.2631E+01
   4.830  0.1508E+01  0.1508E+01  0.2661E+01
   4.840  0.1534E+01  0.1534E+01  0.2692E+01
   4.850  0.1557E+01  0.1557E+01  0.2723E+01
   4.860  0.1579E+01  0.1579E+01  0.2755E+01
   4.870  0.1598E+01  0.1598E+01  0.2787E+01
   4.880  0.1616E+01  0.1616E+01  0.2819E+01
   4.890  0.1631E+01  0.1631E+01  0.2852E+01
   4.900  0.1643E+01  0.1643E+01  0.2885E+01
   4.910  0.1654E+01  0.1654E+01  0.2918E+01
   4.920  0.1662E+01  0.1662E+01  0.2951E+01
   4.930  0.1668E+01  0.1668E+01  0.2984E+01
   4.940  0.1672E+01  0.1672E+01  0.3018E+01
   4.950  0.1673E+01  0.1673E+01  0.3051E+01
   4.960  0.1672E+01  0.1672E+01  0.3085E+01
   4.970  0.1669E+01  0.1669E+01  0.3118E+01
   4.980  0.1665E+01  0.1665E+01  0.3151E+01
   4.990  0.1658E+01  0.1658E+01  0.3184E+01
   5.000  0.1649E+01  0.1649E+01  0.3217E+01
   5.010  0.1638E+01  0.1638E+01  0.3250E+01
   5.020  0.1626E+01  0.1626E+01  0.3283E+01
   5.030  0.1612E+01  0.1612E+01  0.3315E+01
   5.040  0.1597E+01  0.1597E+01  0.3347E+01
   5.050  0.1580E+01  0.1580E+01  0.3379E+01
   5.060  0.1562E+01  0.1562E+01  0.3410E+01
   5.070  0.1543E+01  0.1543E+01  0.3441E+01
   5.080  0.1523E+01  0.1523E+01  0.3471E+01
   5.090  0.1502E+01  0.1502E+01  0.3501E+01
   5.100  0.1481E+01  0.1481E+01  0.3531E+01
   5.110  0.1459E+01  0.1459E+01  0.3560E+01
   5.120  0.1437E+01  0.1437E+01  0.3589E+01
   5.130  0.1414E+01  0.1414E+01  0.3617E+01
   5.140  0.1392E+01  0.1392E+01  0.3645E+01
   5.150  0.1370E+01  0.1370E+01  0.3672E+01
   5.160  0.1348E+01  0.1348E+01  0.3699E+01
   5.170  0.1326E+01  0.1326E+01  0.3726E+01
   5.180  0.1305E+01  0.1305E+01  0.3752E+01
   5.190  0.1285E+01  0.1285E+01  0.3777E+01
   5.200  0.1266E+01  0.1266E+01  0.3803E+01
   5.210  0.1247E+01  0.1247E+01  0.3828E+01
   5.220  0.1230E+01  0.1230E+01  0.3852E+01
   5.230  0.1214E+01  0.1214E+01  0.3877E+01
   5.240  0.1199E+01  0.1199E+01  0.3901E+01
   5.250  0.1185E+01  0.1185E+01  0.3924E+01
   5.260  0.1173E+01  0.1173E+01  0.3948E+01
   5.270  0.1162E+01  0.1162E+01  0.3971E+01
   5.280  0.1152E+01  0.1152E+01  0.3994E+01
   5.290  0.1144E+01  0.1144E+01  0.4017E+01
   5.300  0.1136E+01  0.1136E+01  0.4040E+01
   5.310  0.1131E+01  0.1131E+01  0.4062E+01
   5.320  0.1126E+01  0.1126E+01  0.4085E+01
   5.330  0.1123E+01  0.1123E+01  0.4107E+01
   5.340  0.1120E+01  0.1120E+01  0.4130E+01
   5.350  0.1119E+01  0.1119E+01  0.4152E+01
   5.360  0.1118E+01  0.1118E+01  0.4174E+01
   5.370  0.1118E+01  0.1118E+01  0.4197E+01
   5.380  0.1119E+01  0.1119E+01  0.4219E+01
   5.390  0.1120E+01  0.1120E+01  0.4241E+01
   5.400  0.1121E+01  0.1121E+01  0.4264E+01
   5.410  0.1123E+01  0.1123E+01  0.4286E+01
   5.420  0.1124E+01  0.1124E+01  0.4309E+01
   5.430  0.1126E+01  0.1126E+01  0.4331E+01
   5.440  0.1128E+01  0.1128E+01  0.4354E+01
   5.450  0.1129E+01  0.1129E+01  0.4376E+01
   5.460  0.1129E+01  0.1129E+01  0.4399E+01
   5.470  0.1129E+01  0.1129E+01  0.4422E+01
   5.480  0.1129E+01  0.1129E+01  0.4444E+01
   5.490  0.1128E+01  0.1128E+01  0.4467E+01
   5.500  0.1126E+01  0.1126E+01  0.4489E+01
   5.510  0.1123E+01  0.1123E+01  0.4512E+01
   5.520  0.1120E+01  0.1120E+01  0.4534E+01
   5.530  0.1115E+01  0.1115E+01  0.4556E+01
   5.540  0.1110E+01  0.1110E+01  0.4579E+01
   5.550  0.1104E+01  0.1104E+01  0.4601E+01
   5.560  0.1097E+01  0.1097E+01  0.4623E+01
   5.570  0.1090E+01  0.1090E+01  0.4644E+01
   5.580  0.1081E+01  0.1081E+01  0.4666E+01
   5.590  0.1073E+01  0.1073E+01  0.4688E+01
   5.600  0.1063E+01  0.1063E+01  0.4709E+01
   5.610  0.1053E+01  0.1053E+01  0.4730E+01
   5.620  0.1043E+01  0.1043E+01  0.4751E+01
   5.630  0.1032E+01  0.1032E+01  0.4771E+01
   5.640  0.1021E+01  0.1021E+01  0.4792E+01
   5.650  0.1011E+01  0.1011E+01  0.4812E+01
   5.660  0.9999E+00  0.9999E+00  0.4832E+01
   5.670  0.9892E+00  0.9892E+00  0.4852E+01
   5.680  0.9789E+00  0.9789E+00  0.4871E+01
   5.690  0.9688E+00  0.9688E+00  0.4891E+01
   5.700  0.9593E+00  0.9593E+00  0.4910E+01
   5.710  0.9502E+00  0.9502E+00  0.4929E+01
   5.720  0.9418E+00  0.9418E+00  0.4948E+01
   5.730  0.9340E+00  0.9340E+00  0.4966E+01
   5.740  0.9270E+00  0.9270E+00  0.4985E+01
   5.750  0.9208E+00  0.9208E+00  0.5003E+01
   5.760  0.9154E+00  0.9154E+00  0.5022E+01
   5.770  0.9109E+00  0.9109E+00  0.5040E+01
   5.780  0.9073E+00  0.9073E+00  0.5058E+01
   5.790  0.9045E+00  0.9045E+00  0.5076E+01
   5.800  0.9026E+00  0.9026E+00  0.5094E+01
   5.810  0.9015E+00  0.9015E+00  0.5112E+01
   5.820  0.9012E+00  0.9012E+00  0.5130E+01
   5.830  0.9017E+00  0.9017E+00  0.5148E+01
   5.840  0.9030E+00  0.9030E+00  0.5166E+01
   5.850  0.9049E+00  0.9049E+00  0.5184E+01
   5.860  0.9074E+00  0.9074E+00  0.5203E+01
   5.870  0.9105E+00  0.9105E+00  0.5221E+01
   5.880  0.9139E+00  0.9139E+00  0.5239E+01
   5.890  0.9178E+00  0.9178E+00  0.5257E+01
   5.900  0.9220E+00  0.9220E+00  0.5276E+01
   5.910  0.9263E+00  0.9263E+00  0.5294E+01
   5.920  0.9308E+00  0.9308E+00  0.5313E+01
   5.930  0.9353E+00  0.9353E+00  0.5332E+01
   5.940  0.9397E+00  0.9397E+00  0.5351E+01
   5.950  0.9440E+00  0.9440E+00  0.5369E+01
   5.960  0.9481E+00  0.9481E+00  0.5388E+01
   5.970  0.9519E+00  0.9519E+00  0.5407E+01
   5.980  0.9553E+00  0.9553E+00  0.5427E+01
   5.990  0.9582E+00  0.9582E+00  0.5446E+01
   6.000  0.9607E+00  0.9607E+00  0.5465E+01
   6.010  0.9626E+00  0.9626E+00  0.5484E+01
   6.020  0.9639E+00  0.9639E+00  0.5503E+01
   6.030  0.9646E+00  0.9646E+00  0.5523E+01
   6.040  0.9646E+00  0.9646E+00  0.5542E+01
   6.050  0.9639E+00  0.9639E+00  0.5561E+01
   6.060  0.9626E+00  0.9626E+00  0.5581E+01
   6.070  0.9605E+00  0.9605E+00  0.5600E+01
   6.080  0.9577E+00  0.9577E+00  0.5619E+01
   6.090  0.9543E+00  0.9543E+00  0.5638E+01
   6.100  0.9501E+00  0.9501E+00  0.5657E+01
   6.110  0.9454E+00  0.9454E+00  0.5676E+01
   6.120  0.9400E+00  0.9400E+00  0.5695E+01
   6.130  0.9341E+00  0.9341E+00  0.5713E+01
   6.140  0.9277E+00  0.9277E+00  0.5732E+01
   6.150  0.9209E+00  0.9209E+00  0.5750E+01
   6.160  0.9137E+00  0.9137E+00  0.5769E+01
   6.170  0.9061E+00  0.9061E+00  0.5787E+01
   6.180  0.8984E+00  0.8984E+00  0.5805E+01
   6.190  0.8904E+00  0.8904E+00  0.5823E+01
   6.200  0.8824E+00  0.8824E+00  0.5840E+01
   6.210  0.8744E+00  0.8744E+00  0.5858E+01
   6.220  0.8665E+00  0.8665E+00  0.5875E+01
   6.230  0.8588E+00  0.8588E+00  0.5892E+01
   6.240  0.8513E+00  0.8513E+00  0.5909E+01
   6.250  0.8441E+00  0.8441E+00  0.5926E+01
   6.260  0.8373E+00  0.8373E+00  0.5943E+01
   6.270  0.8311E+00  0.8311E+00  0.5959E+01
   6.280  0.8254E+00  0.8254E+00  0.5976E+01
   6.290  0.8203E+00  0.8203E+00  0.5992E+01
   6.300  0.8159E+00  0.8159E+00  0.6009E+01
   6.310  0.8123E+00  0.8123E+00  0.6025E+01
   6.320  0.8095E+00  0.8095E+00  0.6041E+01
   6.330  0.8075E+00  0.8075E+00  0.6057E+01
   6.340  0.8065E+00  0.8065E+00  0.6073E+01
   6.350  0.8064E+00  0.8064E+00  0.6090E+01
   6.360  0.8072E+00  0.8072E+00  0.6106E+01
   6.370  0.8089E+00  0.8089E+00  0.6122E+01
   6.380  0.8117E+00  0.8117E+00  0.6138E+01
   6.390  0.8154E+00  0.8154E+00  0.6154E+01
   6.400  0.8201E+00  0.8201E+00  0.6171E+01
   6.410  0.8257E+00  0.8257E+00  0.6187E+01
   6.420  0.8322E+00  0.8322E+00  0.6204E+01
   6.430  0.8396E+00  0.8396E+00  0.6221E+01
   6.440  0.8479E+00  0.8479E+00  0.6238E+01
   6.450  0.8569E+00  0.8569E+00  0.6255E+01
   6.460  0.8667E+00  0.8667E+00  0.6272E+01
   6.470  0.8771E+00  0.8771E+00  0.6290E+01
   6.480  0.8881E+00  0.8881E+00  0.6307E+01
   6.490  0.8997E+00  0.8997E+00  0.6325E+01
   6.500  0.9117E+00  0.9117E+00  0.6344E+01
   6.510  0.9241E+00  0.9241E+00  0.6362E+01
   6.520  0.9367E+00  0.9367E+00  0.6381E+01
   6.530  0.9496E+00  0.9496E+00  0.6400E+01
   6.540  0.9626E+00  0.9626E+00  0.6419E+01
   6.550  0.9756E+00  0.9756E+00  0.6439E+01
   6.560  0.9885E+00  0.9885E+00  0.6458E+01
   6.570  0.1001E+01  0.1001E+01  0.6478E+01
   6.580  0.1014E+01  0.1014E+01  0.6499E+01
   6.590  0.1026E+01  0.1026E+01  0.6519E+01
   6.600  0.1038E+01  0.1038E+01  0.6540E+01
   6.610  0.1049E+01  0.1049E+01  0.6561E+01
   6.620  0.1060E+01  0.1060E+01  0.6582E+01
   6.630  0.1070E+01  0.1070E+01  0.6604E+01
   6.640  0.1080E+01  0.1080E+01  0.6625E+01
   6.650  0.1088E+01  0.1088E+01  0.6647E+01
   6.660  0.1096E+01  0.1096E+01  0.6669E+01
   6.670  0.1104E+01  0.1104E+01  0.6691E+01
   6.680  0.1110E+01  0.1110E+01  0.6713E+01
   6.690  0.1115E+01  0.1115E+01  0.6735E+01
   6.700  0.1120E+01  0.1120E+01  0.6758E+01
   6.710  0.1124E+01  0.1124E+01  0.6780E+01
   6.720  0.1127E+01  0.1127E+01  0.6803E+01
   6.730  0.1129E+01  0.1129E+01  0.6825E+01
   6.740  0.1130E+01  0.1130E+01  0.6848E+01
   6.750  0.1130E+01  0.1130E+01  0.6871E+01
   6.760  0.1129E+01  0.1129E+01  0.6893E+01
   6.770  0.1128E+01  0.1128E+01  0.6916E+01
   6.780  0.1125E+01  0.1125E+01  0.6938E+01
   6.790  0.1123E+01  0.1123E+01  0.6961E+01
   6.800  0.1119E+01  0.1119E+01  0.6983E+01
   6.810  0.1114E+01  0.1114E+01  0.7005E+01
   6.820  0.1109E+01  0.1109E+01  0.7028E+01
   6.830  0.1104E+01  0.1104E+01  0.7050E+01
   6.840  0.1098E+01  0.1098E+01  0.7072E+01
   6.850  0.1091E+01  0.1091E+01  0.7093E+01
   6.860  0.1084E+01  0.1084E+01  0.7115E+01
   6.870  0.1077E+01  0.1077E+01  0.7137E+01
   6.880  0.1069E+01  0.1069E+01  0.7158E+01
   6.890  0.1061E+01  0.1061E+01  0.7179E+01
   6.900  0.1053E+01  0.1053E+01  0.7200E+01
   6.910  0.1045E+01  0.1045E+01  0.7221E+01
   6.920  0.1036E+01  0.1036E+01  0.7242E+01
   6.930  0.1027E+01  0.1027E+01  0.7263E+01
   6.940  0.1018E+01  0.1018E+01  0.7283E+01
   6.950  0.1010E+01  0.1010E+01  0.7303E+01
   6.960  0.1001E+01  0.1001E+01  0.7323E+01
   6.970  0.9918E+00  0.9918E+00  0.7343E+01
   6.980  0.9830E+00  0.9830E+00  0.7363E+01
   6.990  0.9742E+00  0.9742E+00  0.7382E+01
   7.000  0.9656E+00  0.9656E+00  0.7401E+01
   7.010  0.9570E+00  0.9570E+00  0.7421E+01
   7.020  0.9486E+00  0.9486E+00  0.7439E+01
   7.030  0.9403E+00  0.9403E+00  0.7458E+01
   7.040  0.9323E+00  0.9323E+00  0.7477E+01
   7.050  0.9244E+00  0.9244E+00  0.7495E+01
   7.060  0.9168E+00  0.9168E+00  0.7514E+01
   7.070  0.9095E+00  0.9095E+00  0.7532E+01
   7.080  0.9024E+00  0.9024E+00  0.7550E+01
   7.090  0.8956E+00  0.8956E+00  0.7568E+01
   7.100  0.8892E+00  0.8892E+00  0.7586E+01
   7.110  0.8831E+00  0.8831E+00  0.7603E+01
   7.120  0.8773E+00  0.8773E+00  0.7621E+01
   7.130  0.8719E+00  0.8719E+00  0.7638E+01
   7.140  0.8669E+00  0.8669E+00  0.7656E+01
   7.150  0.8623E+00  0.8623E+00  0.7673E+01
   7.160  0.8582E+00  0.8582E+00  0.7690E+01
   7.170  0.8544E+00  0.8544E+00  0.7707E+01
   7.180  0.8511E+00  0.8511E+00  0.7724E+01
   7.190  0.8482E+00  0.8482E+00  0.7741E+01
   7.200  0.8457E+00  0.8457E+00  0.7758E+01
   7.210  0.8437E+00  0.8437E+00  0.7775E+01
   7.220  0.8421E+00  0.8421E+00  0.7792E+01
   7.230  0.8410E+00  0.8410E+00  0.7809E+01
   7.240  0.8402E+00  0.8402E+00  0.7825E+01
   7.250  0.8398E+00  0.8398E+00  0.7842E+01
   7.260  0.8398E+00  0.8398E+00  0.7859E+01
   7.270  0.8402E+00  0.8402E+00  0.7876E+01
   7.280  0.8409E+00  0.8409E+00  0.7893E+01
   7.290  0.8418E+00  0.8418E+00  0.7909E+01
   7.300  0.8430E+00  0.8430E+00  0.7926E+01
   7.310  0.8444E+00  0.8444E+00  0.7943E+01
   7.320  0.8460E+00  0.8460E+00  0.7960E+01
   7.330  0.8478E+00  0.8478E+00  0.7977E+01
   7.340  0.8496E+00  0.8496E+00  0.7994E+01
   7.350  0.8515E+00  0.8515E+00  0.8011E+01
   7.360  0.8534E+00  0.8534E+00  0.8028E+01
   7.370  0.8553E+00  0.8553E+00  0.8045E+01
   7.380  0.8572E+00  0.8572E+00  0.8062E+01
   7.390  0.8589E+00  0.8589E+00  0.8080E+01
   7.400  0.8604E+00  0.8604E+00  0.8097E+01
   7.410  0.8618E+00  0.8618E+00  0.8114E+01
   7.420  0.8630E+00  0.8630E+00  0.8131E+01
   7.430  0.8639E+00  0.8639E+00  0.8149E+01
   7.440  0.8645E+00  0.8645E+00  0.8166E+01
   7.450  0.8649E+00  0.8649E+00  0.8183E+01
   7.460  0.8649E+00  0.8649E+00  0.8200E+01
   7.470  0.8646E+00  0.8646E+00  0.8218E+01
   7.480  0.8640E+00  0.8640E+00  0.8235E+01
   7.490  0.8630E+00  0.8630E+00  0.8252E+01
   7.500  0.8617E+00  0.8617E+00  0.8270E+01
   7.510  0.8600E+00  0.8600E+00  0.8287E+01
   7.520  0.8581E+00  0.8581E+00  0.8304E+01
   7.530  0.8557E+00  0.8557E+00  0.8321E+01
   7.540  0.8531E+00  0.8531E+00  0.8338E+01
   7.550  0.8502E+00  0.8502E+00  0.8355E+01
   7.560  0.8471E+00  0.8471E+00  0.8372E+01
   7.570  0.8436E+00  0.8436E+00  0.8389E+01
   7.580  0.8400E+00  0.8400E+00  0.8406E+01
   7.590  0.8362E+00  0.8362E+00  0.8422E+01
   7.600  0.8322E+00  0.8322E+00  0.8439E+01
   7.610  0.8281E+00  0.8281E+00  0.8456E+01
   7.620  0.8239E+00  0.8239E+00  0.8472E+01
   7.630  0.8196E+00  0.8196E+00  0.8489E+01
   7.640  0.8154E+00  0.8154E+00  0.8505E+01
   7.650  0.8111E+00  0.8111E+00  0.8521E+01
   7.660  0.8068E+00  0.8068E+00  0.8537E+01
   7.670  0.8026E+00  0.8026E+00  0.8553E+01
   7.680  0.7985E+00  0.7985E+00  0.8569E+01
   7.690  0.7945E+00  0.7945E+00  0.8585E+01
   7.700  0.7906E+00  0.7906E+00  0.8601E+01
   7.710  0.7869E+00  0.7869E+00  0.8617E+01
   7.720  0.7834E+00  0.7834E+00  0.8632E+01
   7.730  0.7801E+00  0.7801E+00  0.8648E+01
   7.740  0.7770E+00  0.7770E+00  0.8663E+01
   7.750  0.7742E+00  0.7742E+00  0.8679E+01
   7.760  0.7716E+00  0.7716E+00  0.8694E+01
   7.770  0.7692E+00  0.7692E+00  0.8710E+01
   7.780  0.7672E+00  0.7672E+00  0.8725E+01
   7.790  0.7653E+00  0.7653E+00  0.8740E+01
   7.800  0.7638E+00  0.7638E+00  0.8756E+01
   7.810  0.7625E+00  0.7625E+00  0.8771E+01
   7.820  0.7615E+00  0.7615E+00  0.8786E+01
   7.830  0.7608E+00  0.7608E+00  0.8801E+01
   7.840  0.7604E+00  0.7604E+00  0.8817E+01
   7.850  0.7602E+00  0.7602E+00  0.8832E+01
   7.860  0.7603E+00  0.7603E+00  0.8847E+01
   7.870  0.7606E+00  0.7606E+00  0.8862E+01
   7.880  0.7612E+00  0.7612E+00  0.8877E+01
   7.890  0.7621E+00  0.7621E+00  0.8893E+01
   7.900  0.7632E+00  0.7632E+00  0.8908E+01
   7.910  0.7645E+00  0.7645E+00  0.8923E+01
   7.920  0.7661E+00  0.7661E+00  0.8939E+01
   7.930  0.7680E+00  0.7680E+00  0.8954E+01
   7.940  0.7700E+00  0.7700E+00  0.8969E+01
   7.950  0.7723E+00  0.7723E+00  0.8985E+01
   7.960  0.7748E+00  0.7748E+00  0.9000E+01
   7.970  0.7775E+00  0.7775E+00  0.9016E+01
   7.980  0.7804E+00  0.7804E+00  0.9031E+01
   7.990  0.7836E+00  0.7836E+00  0.9047E+01
   8.000  0.7870E+00  0.7870E+00  0.9063E+01
   8.010  0.7905E+00  0.7905E+00  0.9079E+01
   8.020  0.7943E+00  0.7943E+00  0.9095E+01
   8.030  0.7983E+00  0.7983E+00  0.9110E+01
   8.040  0.8024E+00  0.8024E+00  0.9127E+01
   8.050  0.8068E+00  0.8068E+00  0.9143E+01
   8.060  0.8114E+00  0.8114E+00  0.9159E+01
   8.070  0.8161E+00  0.8161E+00  0.9175E+01
   8.080  0.8210E+00  0.8210E+00  0.9192E+01
   8.090  0.8261E+00  0.8261E+00  0.9208E+01
   8.100  0.8313E+00  0.8313E+00  0.9225E+01
   8.110  0.8367E+00  0.8367E+00  0.9242E+01
   8.120  0.8421E+00  0.8421E+00  0.9258E+01
   8.130  0.8478E+00  0.8478E+00  0.9275E+01
   8.140  0.8535E+00  0.8535E+00  0.9292E+01
   8.150  0.8593E+00  0.8593E+00  0.9310E+01
   8.160  0.8651E+00  0.8651E+00  0.9327E+01
   8.170  0.8711E+00  0.8711E+00  0.9344E+01
   8.180  0.8770E+00  0.8770E+00  0.9362E+01
   8.190  0.8829E+00  0.8830E+00  0.9379E+01
   8.200  0.8889E+00  0.8889E+00  0.9397E+01
   8.210  0.8948E+00  0.8948E+00  0.9415E+01
   8.220  0.9007E+00  0.9007E+00  0.9433E+01
   8.230  0.9065E+00  0.9065E+00  0.9451E+01
   8.240  0.9122E+00  0.9122E+00  0.9470E+01
   8.250  0.9179E+00  0.9179E+00  0.9488E+01
   8.260  0.9235E+00  0.9235E+00  0.9506E+01
   8.270  0.9289E+00  0.9289E+00  0.9525E+01
   8.280  0.9343E+00  0.9343E+00  0.9544E+01
   8.290  0.9395E+00  0.9395E+00  0.9562E+01
   8.300  0.9447E+00  0.9447E+00  0.9581E+01
   8.310  0.9497E+00  0.9497E+00  0.9600E+01
   8.320  0.9547E+00  0.9547E+00  0.9619E+01
   8.330  0.9597E+00  0.9597E+00  0.9639E+01
   8.340  0.9647E+00  0.9647E+00  0.9658E+01
   8.350  0.9696E+00  0.9696E+00  0.9677E+01
   8.360  0.9747E+00  0.9747E+00  0.9697E+01
   8.370  0.9798E+00  0.9798E+00  0.9716E+01
   8.380  0.9851E+00  0.9851E+00  0.9736E+01
   8.390  0.9906E+00  0.9906E+00  0.9756E+01
   8.400  0.9965E+00  0.9965E+00  0.9776E+01
   8.410  0.1003E+01  0.1003E+01  0.9796E+01
   8.420  0.1009E+01  0.1009E+01  0.9816E+01
   8.430  0.1016E+01  0.1016E+01  0.9836E+01
   8.440  0.1024E+01  0.1024E+01  0.9857E+01
   8.450  0.1033E+01  0.1033E+01  0.9878E+01
   8.460  0.1042E+01  0.1042E+01  0.9898E+01
   8.470  0.1052E+01  0.1052E+01  0.9919E+01
   8.480  0.1063E+01  0.1063E+01  0.9941E+01
   8.490  0.1075E+01  0.1075E+01  0.9962E+01
   8.500  0.1088E+01  0.1088E+01  0.9984E+01
   8.510  0.1102E+01  0.1102E+01  0.1001E+02
   8.520  0.1118E+01  0.1118E+01  0.1003E+02
   8.530  0.1135E+01  0.1135E+01  0.1005E+02
   8.540  0.1154E+01  0.1154E+01  0.1007E+02
   8.550  0.1174E+01  0.1174E+01  0.1010E+02
   8.560  0.1196E+01  0.1196E+01  0.1012E+02
   8.570  0.1219E+01  0.1219E+01  0.1015E+02
   8.580  0.1245E+01  0.1245E+01  0.1017E+02
   8.590  0.1272E+01  0.1272E+01  0.1020E+02
   8.600  0.1300E+01  0.1300E+01  0.1022E+02
   8.610  0.1331E+01  0.1331E+01  0.1025E+02
   8.620  0.1364E+01  0.1364E+01  0.1028E+02
   8.630  0.1398E+01  0.1398E+01  0.1030E+02
   8.640  0.1435E+01  0.1435E+01  0.1033E+02
   8.650  0.1473E+01  0.1473E+01  0.1036E+02
   8.660  0.1513E+01  0.1513E+01  0.1039E+02
   8.670  0.1556E+01  0.1556E+01  0.1042E+02
   8.680  0.1600E+01  0.1600E+01  0.1046E+02
   8.690  0.1646E+01  0.1646E+01  0.1049E+02
   8.700  0.1694E+01  0.1694E+01  0.1052E+02
   8.710  0.1744E+01  0.1744E+01  0.1056E+02
   8.720  0.1796E+01  0.1796E+01  0.1059E+02
   8.730  0.1849E+01  0.1849E+01  0.1063E+02
   8.740  0.1904E+01  0.1904E+01  0.1067E+02
   8.750  0.1961E+01  0.1961E+01  0.1071E+02
   8.760  0.2020E+01  0.2020E+01  0.1075E+02
   8.770  0.2081E+01  0.2081E+01  0.1079E+02
   8.780  0.2143E+01  0.2143E+01  0.1083E+02
   8.790  0.2206E+01  0.2206E+01  0.1088E+02
   8.800  0.2272E+01  0.2272E+01  0.1092E+02
   8.810  0.2338E+01  0.2338E+01  0.1097E+02
   8.820  0.2407E+01  0.2407E+01  0.1102E+02
   8.830  0.2476E+01  0.2476E+01  0.1107E+02
   8.840  0.2547E+01  0.2547E+01  0.1112E+02
   8.850  0.2620E+01  0.2620E+01  0.1117E+02
   8.860  0.2694E+01  0.2694E+01  0.1122E+02
   8.870  0.2769E+01  0.2769E+01  0.1128E+02
   8.880  0.2845E+01  0.2845E+01  0.1134E+02
   8.890  0.2923E+01  0.2923E+01  0.1139E+02
   8.900  0.3001E+01  0.3001E+01  0.1145E+02
   8.910  0.3081E+01  0.3081E+01  0.1152E+02
   8.920  0.3162E+01  0.3162E+01  0.1158E+02
   8.930  0.3244E+01  0.3244E+01  0.1164E+02
   8.940  0.3327E+01  0.3327E+01  0.1171E+02
   8.950  0.3410E+01  0.3410E+01  0.1178E+02
   8.960  0.3494E+01  0.3494E+01  0.1185E+02
   8.970  0.3579E+01  0.3579E+01  0.1192E+02
   8.980  0.3665E+01  0.3665E+01  0.1199E+02
   8.990  0.3751E+01  0.3751E+01  0.1207E+02
   9.000  0.3837E+01  0.3837E+01  0.1215E+02
   9.010  0.3923E+01  0.3923E+01  0.1222E+02
   9.020  0.4010E+01  0.4010E+01  0.1230E+02
   9.030  0.4096E+01  0.4096E+01  0.1239E+02
   9.040  0.4182E+01  0.4182E+01  0.1247E+02
   9.050  0.4267E+01  0.4267E+01  0.1255E+02
   9.060  0.4352E+01  0.4352E+01  0.1264E+02
   9.070  0.4435E+01  0.4435E+01  0.1273E+02
   9.080  0.4518E+01  0.4518E+01  0.1282E+02
   9.090  0.4599E+01  0.4599E+01  0.1291E+02
   9.100  0.4679E+01  0.4679E+01  0.1301E+02
   9.110  0.4757E+01  0.4757E+01  0.1310E+02
   9.120  0.4833E+01  0.4833E+01  0.1320E+02
   9.130  0.4906E+01  0.4906E+01  0.1330E+02
   9.140  0.4977E+01  0.4977E+01  0.1340E+02
   9.150  0.5046E+01  0.5046E+01  0.1350E+02
   9.160  0.5111E+01  0.5111E+01  0.1360E+02
   9.170  0.5173E+01  0.5173E+01  0.1370E+02
   9.180  0.5232E+01  0.5232E+01  0.1381E+02
   9.190  0.5287E+01  0.5287E+01  0.1391E+02
   9.200  0.5338E+01  0.5338E+01  0.1402E+02
   9.210  0.5386E+01  0.5386E+01  0.1413E+02
   9.220  0.5429E+01  0.5429E+01  0.1424E+02
   9.230  0.5468E+01  0.5468E+01  0.1435E+02
   9.240  0.5502E+01  0.5502E+01  0.1446E+02
   9.250  0.5532E+01  0.5532E+01  0.1457E+02
   9.260  0.5557E+01  0.5557E+01  0.1468E+02
   9.270  0.5578E+01  0.5578E+01  0.1479E+02
   9.280  0.5594E+01  0.5594E+01  0.1490E+02
   9.290  0.5605E+01  0.5605E+01  0.1501E+02
   9.300  0.5612E+01  0.5612E+01  0.1512E+02
   9.310  0.5613E+01  0.5613E+01  0.1524E+02
   9.320  0.5611E+01  0.5611E+01  0.1535E+02
   9.330  0.5603E+01  0.5603E+01  0.1546E+02
   9.340  0.5592E+01  0.5592E+01  0.1557E+02
   9.350  0.5576E+01  0.5576E+01  0.1568E+02
   9.360  0.5556E+01  0.5556E+01  0.1580E+02
   9.370  0.5532E+01  0.5532E+01  0.1591E+02
   9.380  0.5505E+01  0.5505E+01  0.1602E+02
   9.390  0.5474E+01  0.5474E+01  0.1613E+02
   9.400  0.5440E+01  0.5440E+01  0.1623E+02
   9.410  0.5404E+01  0.5404E+01  0.1634E+02
   9.420  0.5365E+01  0.5365E+01  0.1645E+02
   9.430  0.5324E+01  0.5324E+01  0.1656E+02
   9.440  0.5281E+01  0.5281E+01  0.1666E+02
   9.450  0.5236E+01  0.5236E+01  0.1677E+02
   9.460  0.5190E+01  0.5190E+01  0.1687E+02
   9.470  0.5144E+01  0.5144E+01  0.1697E+02
   9.480  0.5097E+01  0.5097E+01  0.1708E+02
   9.490  0.5050E+01  0.5050E+01  0.1718E+02
   9.500  0.5004E+01  0.5004E+01  0.1728E+02
   9.510  0.4958E+01  0.4958E+01  0.1738E+02
   9.520  0.4913E+01  0.4913E+01  0.1747E+02
   9.530  0.4870E+01  0.4870E+01  0.1757E+02
   9.540  0.4828E+01  0.4828E+01  0.1767E+02
   9.550  0.4788E+01  0.4788E+01  0.1776E+02
   9.560  0.4751E+01  0.4751E+01  0.1786E+02
   9.570  0.4716E+01  0.4716E+01  0.1795E+02
   9.580  0.4684E+01  0.4684E+01  0.1805E+02
   9.590  0.4655E+01  0.4655E+01  0.1814E+02
   9.600  0.4629E+01  0.4629E+01  0.1823E+02
   9.610  0.4607E+01  0.4607E+01  0.1832E+02
   9.620  0.4588E+01  0.4588E+01  0.1842E+02
   9.630  0.4574E+01  0.4574E+01  0.1851E+02
   9.640  0.4563E+01  0.4563E+01  0.1860E+02
   9.650  0.4556E+01  0.4556E+01  0.1869E+02
   9.660  0.4553E+01  0.4553E+01  0.1878E+02
   9.670  0.4553E+01  0.4553E+01  0.1887E+02
   9.680  0.4558E+01  0.4558E+01  0.1896E+02
   9.690  0.4567E+01  0.4567E+01  0.1906E+02
   9.700  0.4579E+01  0.4579E+01  0.1915E+02
   9.710  0.4595E+01  0.4595E+01  0.1924E+02
   9.720  0.4615E+01  0.4615E+01  0.1933E+02
   9.730  0.4637E+01  0.4637E+01  0.1942E+02
   9.740  0.4663E+01  0.4663E+01  0.1952E+02
   9.750  0.4692E+01  0.4692E+01  0.1961E+02
   9.760  0.4723E+01  0.4723E+01  0.1971E+02
   9.770  0.4757E+01  0.4757E+01  0.1980E+02
   9.780  0.4793E+01  0.4793E+01  0.1990E+02
   9.790  0.4831E+01  0.4831E+01  0.1999E+02
   9.800  0.4870E+01  0.4870E+01  0.2009E+02
   9.810  0.4910E+01  0.4910E+01  0.2019E+02
   9.820  0.4952E+01  0.4952E+01  0.2029E+02
   9.830  0.4994E+01  0.4994E+01  0.2039E+02
   9.840  0.5036E+01  0.5036E+01  0.2049E+02
   9.850  0.5079E+01  0.5079E+01  0.2059E+02
   9.860  0.5121E+01  0.5121E+01  0.2069E+02
   9.870  0.5163E+01  0.5163E+01  0.2080E+02
   9.880  0.5204E+01  0.5204E+01  0.2090E+02
   9.890  0.5244E+01  0.5244E+01  0.2100E+02
   9.900  0.5282E+01  0.5282E+01  0.2111E+02
   9.910  0.5320E+01  0.5320E+01  0.2122E+02
   9.920  0.5356E+01  0.5356E+01  0.2132E+02
   9.930  0.5390E+01  0.5390E+01  0.2143E+02
   9.940  0.5423E+01  0.5423E+01  0.2154E+02
   9.950  0.5454E+01  0.5454E+01  0.2165E+02
   9.960  0.5483E+01  0.5483E+01  0.2176E+02
   9.970  0.5510E+01  0.5510E+01  0.2187E+02
   9.980  0.5535E+01  0.5535E+01  0.2198E+02
   9.990  0.5559E+01  0.5559E+01  0.2209E+02
  10.000  0.5580E+01  0.5580E+01  0.2220E+02
  10.010  0.5600E+01  0.5600E+01  0.2231E+02
  10.020  0.5619E+01  0.5619E+01  0.2243E+02
  10.030  0.5636E+01  0.5636E+01  0.2254E+02
  10.040  0.5652E+01  0.5652E+01  0.2265E+02
  10.050  0.5667E+01  0.5667E+01  0.2277E+02
  10.060  0.5680E+01  0.5680E+01  0.2288E+02
  10.070  0.5693E+01  0.5693E+01  0.2299E+02
  10.080  0.5706E+01  0.5706E+01  0.2311E+02
  10.090  0.5718E+01  0.5718E+01  0.2322E+02
  10.100  0.5730E+01  0.5730E+01  0.2334E+02
  10.110  0.5743E+01  0.5743E+01  0.2345E+02
  10.120  0.5755E+01  0.5755E+01  0.2357E+02
  10.130  0.5768E+01  0.5768E+01  0.2368E+02
  10.140  0.5782E+01  0.5782E+01  0.2380E+02
  10.150  0.5796E+01  0.5796E+01  0.2391E+02
  10.160  0.5811E+01  0.5811E+01  0.2403E+02
  10.170  0.5828E+01  0.5828E+01  0.2415E+02
  10.180  0.5845E+01  0.5845E+01  0.2426E+02
  10.190  0.5864E+01  0.5864E+01  0.2438E+02
  10.200  0.5884E+01  0.5884E+01  0.2450E+02
  10.210  0.5905E+01  0.5905E+01  0.2462E+02
  10.220  0.5927E+01  0.5927E+01  0.2473E+02
  10.230  0.5951E+01  0.5951E+01  0.2485E+02
  10.240  0.5976E+01  0.5976E+01  0.2497E+02
  10.250  0.6001E+01  0.6001E+01  0.2509E+02
  10.260  0.6027E+01  0.6027E+01  0.2521E+02
  10.270  0.6054E+01  0.6054E+01  0.2533E+02
  10.280  0.6082E+01  0.6082E+01  0.2546E+02
  10.290  0.6109E+01  0.6109E+01  0.2558E+02
  10.300  0.6137E+01  0.6137E+01  0.2570E+02
  10.310  0.6163E+01  0.6163E+01  0.2582E+02
  10.320  0.6190E+01  0.6190E+01  0.2595E+02
  10.330  0.6215E+01  0.6215E+01  0.2607E+02
  10.340  0.6238E+01  0.6238E+01  0.2620E+02
  10.350  0.6260E+01  0.6260E+01  0.2632E+02
  10.360  0.6280E+01  0.6280E+01  0.2645E+02
  10.370  0.6297E+01  0.6297E+01  0.2657E+02
  10.380  0.6311E+01  0.6311E+01  0.2670E+02
  10.390  0.6323E+01  0.6323E+01  0.2683E+02
  10.400  0.6330E+01  0.6330E+01  0.2695E+02
  10.410  0.6334E+01  0.6334E+01  0.2708E+02
  10.420  0.6333E+01  0.6333E+01  0.2721E+02
  10.430  0.6329E+01  0.6329E+01  0.2733E+02
  10.440  0.6319E+01  0.6319E+01  0.2746E+02
  10.450  0.6304E+01  0.6304E+01  0.2759E+02
  10.460  0.6285E+01  0.6285E+01  0.2771E+02
  10.470  0.6260E+01  0.6260E+01  0.2784E+02
  10.480  0.6230E+01  0.6230E+01  0.2796E+02
  10.490  0.6195E+01  0.6195E+01  0.2808E+02
  10.500  0.6154E+01  0.6154E+01  0.2821E+02
  10.510  0.6108E+01  0.6108E+01  0.2833E+02
  10.520  0.6056E+01  0.6056E+01  0.2845E+02
  10.530  0.5999E+01  0.5999E+01  0.2857E+02
  10.540  0.5938E+01  0.5938E+01  0.2869E+02
  10.550  0.5871E+01  0.5871E+01  0.2881E+02
  10.560  0.5800E+01  0.5800E+01  0.2892E+02
  10.570  0.5725E+01  0.5725E+01  0.2904E+02
  10.580  0.5646E+01  0.5646E+01  0.2915E+02
  10.590  0.5563E+01  0.5563E+01  0.2926E+02
  10.600  0.5477E+01  0.5477E+01  0.2937E+02
  10.610  0.5388E+01  0.5388E+01  0.2948E+02
  10.620  0.5297E+01  0.5297E+01  0.2959E+02
  10.630  0.5203E+01  0.5203E+01  0.2969E+02
  10.640  0.5108E+01  0.5108E+01  0.2979E+02
  10.650  0.5012E+01  0.5012E+01  0.2989E+02
  10.660  0.4915E+01  0.4915E+01  0.2999E+02
  10.670  0.4818E+01  0.4818E+01  0.3009E+02
  10.680  0.4721E+01  0.4721E+01  0.3018E+02
  10.690  0.4624E+01  0.4624E+01  0.3027E+02
  10.700  0.4529E+01  0.4529E+01  0.3036E+02
  10.710  0.4435E+01  0.4435E+01  0.3045E+02
  10.720  0.4342E+01  0.4342E+01  0.3054E+02
  10.730  0.4252E+01  0.4252E+01  0.3062E+02
  10.740  0.4164E+01  0.4164E+01  0.3071E+02
  10.750  0.4079E+01  0.4079E+01  0.3079E+02
  10.760  0.3997E+01  0.3997E+01  0.3087E+02
  10.770  0.3919E+01  0.3919E+01  0.3095E+02
  10.780  0.3844E+01  0.3844E+01  0.3102E+02
  10.790  0.3772E+01  0.3772E+01  0.3110E+02
  10.800  0.3705E+01  0.3705E+01  0.3117E+02
  10.810  0.3641E+01  0.3641E+01  0.3125E+02
  10.820  0.3581E+01  0.3581E+01  0.3132E+02
  10.830  0.3526E+01  0.3526E+01  0.3139E+02
  10.840  0.3475E+01  0.3475E+01  0.3146E+02
  10.850  0.3428E+01  0.3428E+01  0.3153E+02
  10.860  0.3386E+01  0.3386E+01  0.3159E+02
  10.870  0.3348E+01  0.3348E+01  0.3166E+02
  10.880  0.3314E+01  0.3314E+01  0.3173E+02
  10.890  0.3285E+01  0.3285E+01  0.3179E+02
  10.900  0.3259E+01  0.3259E+01  0.3186E+02
  10.910  0.3238E+01  0.3238E+01  0.3192E+02
  10.920  0.3221E+01  0.3221E+01  0.3199E+02
  10.930  0.3209E+01  0.3209E+01  0.3205E+02
  10.940  0.3200E+01  0.3200E+01  0.3212E+02
  10.950  0.3196E+01  0.3196E+01  0.3218E+02
  10.960  0.3195E+01  0.3195E+01  0.3224E+02
  10.970  0.3199E+01  0.3199E+01  0.3231E+02
  10.980  0.3206E+01  0.3206E+01  0.3237E+02
  10.990  0.3218E+01  0.3218E+01  0.3244E+02
  11.000  0.3234E+01  0.3234E+01  0.3250E+02
  11.010  0.3253E+01  0.3253E+01  0.3257E+02
  11.020  0.3277E+01  0.3277E+01  0.3263E+02
  11.030  0.3305E+01  0.3305E+01  0.3270E+02
  11.040  0.3337E+01  0.3337E+01  0.3276E+02
  11.050  0.3373E+01  0.3373E+01  0.3283E+02
  11.060  0.3414E+01  0.3414E+01  0.3290E+02
  11.070  0.3459E+01  0.3459E+01  0.3297E+02
  11.080  0.3509E+01  0.3509E+01  0.3304E+02
  11.090  0.3563E+01  0.3563E+01  0.3311E+02
  11.100  0.3622E+01  0.3622E+01  0.3318E+02
  11.110  0.3686E+01  0.3686E+01  0.3326E+02
  11.120  0.3755E+01  0.3755E+01  0.3333E+02
  11.130  0.3829E+01  0.3829E+01  0.3341E+02
  11.140  0.3908E+01  0.3908E+01  0.3349E+02
  11.150  0.3992E+01  0.3992E+01  0.3357E+02
  11.160  0.4081E+01  0.4081E+01  0.3365E+02
  11.170  0.4175E+01  0.4175E+01  0.3373E+02
  11.180  0.4275E+01  0.4275E+01  0.3382E+02
  11.190  0.4380E+01  0.4380E+01  0.3391E+02
  11.200  0.4490E+01  0.4490E+01  0.3399E+02
  11.210  0.4605E+01  0.4605E+01  0.3409E+02
  11.220  0.4725E+01  0.4725E+01  0.3418E+02
  11.230  0.4849E+01  0.4849E+01  0.3428E+02
  11.240  0.4978E+01  0.4978E+01  0.3438E+02
  11.250  0.5111E+01  0.5111E+01  0.3448E+02
  11.260  0.5247E+01  0.5247E+01  0.3459E+02
  11.270  0.5387E+01  0.5387E+01  0.3469E+02
  11.280  0.5530E+01  0.5530E+01  0.3480E+02
  11.290  0.5676E+01  0.5676E+01  0.3492E+02
  11.300  0.5823E+01  0.5823E+01  0.3503E+02
  11.310  0.5973E+01  0.5973E+01  0.3515E+02
  11.320  0.6123E+01  0.6123E+01  0.3528E+02
  11.330  0.6274E+01  0.6274E+01  0.3540E+02
  11.340  0.6424E+01  0.6424E+01  0.3553E+02
  11.350  0.6574E+01  0.6574E+01  0.3566E+02
  11.360  0.6722E+01  0.6722E+01  0.3580E+02
  11.370  0.6868E+01  0.6868E+01  0.3593E+02
  11.380  0.7012E+01  0.7012E+01  0.3607E+02
  11.390  0.7152E+01  0.7152E+01  0.3622E+02
  11.400  0.7288E+01  0.7288E+01  0.3636E+02
  11.410  0.7420E+01  0.7420E+01  0.3651E+02
  11.420  0.7546E+01  0.7546E+01  0.3666E+02
  11.430  0.7667E+01  0.7667E+01  0.3681E+02
  11.440  0.7781E+01  0.7781E+01  0.3697E+02
  11.450  0.7889E+01  0.7889E+01  0.3713E+02
  11.460  0.7989E+01  0.7989E+01  0.3729E+02
  11.470  0.8082E+01  0.8082E+01  0.3745E+02
  11.480  0.8167E+01  0.8167E+01  0.3761E+02
  11.490  0.8243E+01  0.8243E+01  0.3778E+02
  11.500  0.8311E+01  0.8311E+01  0.3794E+02
  11.510  0.8369E+01  0.8369E+01  0.3811E+02
  11.520  0.8419E+01  0.8419E+01  0.3828E+02
  11.530  0.8460E+01  0.8460E+01  0.3845E+02
  11.540  0.8491E+01  0.8491E+01  0.3862E+02
  11.550  0.8514E+01  0.8514E+01  0.3879E+02
  11.560  0.8527E+01  0.8527E+01  0.3896E+02
  11.570  0.8531E+01  0.8531E+01  0.3913E+02
  11.580  0.8526E+01  0.8526E+01  0.3930E+02
  11.590  0.8512E+01  0.8512E+01  0.3947E+02
  11.600  0.8489E+01  0.8489E+01  0.3964E+02
  11.610  0.8459E+01  0.8459E+01  0.3981E+02
  11.620  0.8420E+01  0.8420E+01  0.3998E+02
  11.630  0.8373E+01  0.8373E+01  0.4015E+02
  11.640  0.8319E+01  0.8319E+01  0.4031E+02
  11.650  0.8258E+01  0.8258E+01  0.4048E+02
  11.660  0.8191E+01  0.8191E+01  0.4064E+02
  11.670  0.8117E+01  0.8117E+01  0.4080E+02
  11.680  0.8037E+01  0.8037E+01  0.4096E+02
  11.690  0.7951E+01  0.7951E+01  0.4112E+02
  11.700  0.7860E+01  0.7860E+01  0.4128E+02
  11.710  0.7765E+01  0.7765E+01  0.4144E+02
  11.720  0.7665E+01  0.7665E+01  0.4159E+02
  11.730  0.7561E+01  0.7561E+01  0.4174E+02
  11.740  0.7453E+01  0.7453E+01  0.4189E+02
  11.750  0.7342E+01  0.7342E+01  0.4204E+02
  11.760  0.7228E+01  0.7228E+01  0.4218E+02
  11.770  0.7112E+01  0.7112E+01  0.4232E+02
  11.780  0.6993E+01  0.6993E+01  0.4246E+02
  11.790  0.6872E+01  0.6872E+01  0.4260E+02
  11.800  0.6750E+01  0.6750E+01  0.4273E+02
  11.810  0.6626E+01  0.6626E+01  0.4287E+02
  11.820  0.6501E+01  0.6501E+01  0.4300E+02
  11.830  0.6375E+01  0.6375E+01  0.4312E+02
  11.840  0.6248E+01  0.6248E+01  0.4325E+02
  11.850  0.6121E+01  0.6121E+01  0.4337E+02
  11.860  0.5993E+01  0.5993E+01  0.4349E+02
  11.870  0.5865E+01  0.5865E+01  0.4361E+02
  11.880  0.5737E+01  0.5737E+01  0.4372E+02
  11.890  0.5609E+01  0.5609E+01  0.4384E+02
  11.900  0.5482E+01  0.5482E+01  0.4395E+02
  11.910  0.5354E+01  0.5354E+01  0.4405E+02
  11.920  0.5228E+01  0.5228E+01  0.4416E+02
  11.930  0.5102E+01  0.5102E+01  0.4426E+02
  11.940  0.4977E+01  0.4977E+01  0.4436E+02
  11.950  0.4852E+01  0.4852E+01  0.4446E+02
  11.960  0.4729E+01  0.4729E+01  0.4455E+02
  11.970  0.4606E+01  0.4606E+01  0.4464E+02
  11.980  0.4485E+01  0.4485E+01  0.4473E+02
  11.990  0.4365E+01  0.4365E+01  0.4482E+02
  12.000  0.4246E+01  0.4246E+01  0.4490E+02
  12.010  0.4128E+01  0.4128E+01  0.4499E+02
  12.020  0.4012E+01  0.4012E+01  0.4507E+02
  12.030  0.3898E+01  0.3898E+01  0.4515E+02
  12.040  0.3785E+01  0.3785E+01  0.4522E+02
  12.050  0.3673E+01  0.3673E+01  0.4529E+02
  12.060  0.3564E+01  0.3564E+01  0.4537E+02
  12.070  0.3456E+01  0.3456E+01  0.4544E+02
  12.080  0.3350E+01  0.3350E+01  0.4550E+02
  12.090  0.3246E+01  0.3246E+01  0.4557E+02
  12.100  0.3144E+01  0.3144E+01  0.4563E+02
  12.110  0.3045E+01  0.3045E+01  0.4569E+02
  12.120  0.2947E+01  0.2947E+01  0.4575E+02
  12.130  0.2852E+01  0.2852E+01  0.4581E+02
  12.140  0.2759E+01  0.2759E+01  0.4586E+02
  12.150  0.2668E+01  0.2668E+01  0.4592E+02
  12.160  0.2580E+01  0.2580E+01  0.4597E+02
  12.170  0.2494E+01  0.2494E+01  0.4602E+02
  12.180  0.2411E+01  0.2411E+01  0.4607E+02
  12.190  0.2330E+01  0.2330E+01  0.4611E+02
  12.200  0.2252E+01  0.2252E+01  0.4616E+02
  12.210  0.2176E+01  0.2176E+01  0.4620E+02
  12.220  0.2103E+01  0.2103E+01  0.4624E+02
  12.230  0.2032E+01  0.2032E+01  0.4628E+02
  12.240  0.1964E+01  0.1964E+01  0.4632E+02
  12.250  0.1899E+01  0.1899E+01  0.4636E+02
  12.260  0.1836E+01  0.1836E+01  0.4640E+02
  12.270  0.1776E+01  0.1776E+01  0.4643E+02
  12.280  0.1718E+01  0.1718E+01  0.4647E+02
  12.290  0.1662E+01  0.1662E+01  0.4650E+02
  12.300  0.1609E+01  0.1609E+01  0.4653E+02
  12.310  0.1559E+01  0.1559E+01  0.4656E+02
  12.320  0.1510E+01  0.1510E+01  0.4659E+02
  12.330  0.1464E+01  0.1464E+01  0.4662E+02
  12.340  0.1420E+01  0.1420E+01  0.4665E+02
  12.350  0.1379E+01  0.1379E+01  0.4668E+02
  12.360  0.1339E+01  0.1339E+01  0.4671E+02
  12.370  0.1301E+01  0.1301E+01  0.4673E+02
  12.380  0.1265E+01  0.1265E+01  0.4676E+02
  12.390  0.1231E+01  0.1231E+01  0.4678E+02
  12.400  0.1199E+01  0.1199E+01  0.4681E+02
  12.410  0.1169E+01  0.1169E+01  0.4683E+02
  12.420  0.1140E+01  0.1140E+01  0.4685E+02
  12.430  0.1112E+01  0.1112E+01  0.4687E+02
  12.440  0.1086E+01  0.1086E+01  0.4690E+02
  12.450  0.1062E+01  0.1062E+01  0.4692E+02
  12.460  0.1039E+01  0.1039E+01  0.4694E+02
  12.470  0.1017E+01  0.1017E+01  0.4696E+02
  12.480  0.9960E+00  0.9960E+00  0.4698E+02
  12.490  0.9764E+00  0.9764E+00  0.4700E+02
  12.500  0.9579E+00  0.9579E+00  0.4702E+02
  12.510  0.9404E+00  0.9404E+00  0.4704E+02
  12.520  0.9238E+00  0.9238E+00  0.4705E+02
  12.530  0.9082E+00  0.9082E+00  0.4707E+02
  12.540  0.8934E+00  0.8934E+00  0.4709E+02
  12.550  0.8795E+00  0.8795E+00  0.4711E+02
  12.560  0.8663E+00  0.8663E+00  0.4713E+02
  12.570  0.8539E+00  0.8539E+00  0.4714E+02
  12.580  0.8421E+00  0.8421E+00  0.4716E+02
  12.590  0.8310E+00  0.8310E+00  0.4718E+02
  12.600  0.8205E+00  0.8205E+00  0.4719E+02
  12.610  0.8106E+00  0.8106E+00  0.4721E+02
  12.620  0.8012E+00  0.8012E+00  0.4722E+02
  12.630  0.7924E+00  0.7924E+00  0.4724E+02
  12.640  0.7841E+00  0.7841E+00  0.4726E+02
  12.650  0.7762E+00  0.7762E+00  0.4727E+02
  12.660  0.7687E+00  0.7687E+00  0.4729E+02
  12.670  0.7617E+00  0.7617E+00  0.4730E+02
  12.680  0.7550E+00  0.7550E+00  0.4732E+02
  12.690  0.7487E+00  0.7487E+00  0.4733E+02
  12.700  0.7428E+00  0.7428E+00  0.4735E+02
  12.710  0.7371E+00  0.7371E+00  0.4736E+02
  12.720  0.7318E+00  0.7318E+00  0.4738E+02
  12.730  0.7266E+00  0.7266E+00  0.4739E+02
  12.740  0.7218E+00  0.7218E+00  0.4741E+02
  12.750  0.7171E+00  0.7171E+00  0.4742E+02
  12.760  0.7126E+00  0.7126E+00  0.4743E+02
  12.770  0.7083E+00  0.7083E+00  0.4745E+02
  12.780  0.7041E+00  0.7041E+00  0.4746E+02
  12.790  0.7000E+00  0.7000E+00  0.4748E+02
  12.800  0.6960E+00  0.6960E+00  0.4749E+02
  12.810  0.6921E+00  0.6921E+00  0.4750E+02
  12.820  0.6882E+00  0.6882E+00  0.4752E+02
  12.830  0.6843E+00  0.6843E+00  0.4753E+02
  12.840  0.6804E+00  0.6804E+00  0.4754E+02
  12.850  0.6765E+00  0.6765E+00  0.4756E+02
  12.860  0.6725E+00  0.6725E+00  0.4757E+02
  12.870  0.6685E+00  0.6685E+00  0.4759E+02
  12.880  0.6644E+00  0.6644E+00  0.4760E+02
  12.890  0.6602E+00  0.6602E+00  0.4761E+02
  12.900  0.6558E+00  0.6558E+00  0.4762E+02
  12.910  0.6513E+00  0.6513E+00  0.4764E+02
  12.920  0.6466E+00  0.6466E+00  0.4765E+02
  12.930  0.6418E+00  0.6418E+00  0.4766E+02
  12.940  0.6368E+00  0.6368E+00  0.4768E+02
  12.950  0.6316E+00  0.6316E+00  0.4769E+02
  12.960  0.6261E+00  0.6262E+00  0.4770E+02
  12.970  0.6205E+00  0.6205E+00  0.4771E+02
  12.980  0.6147E+00  0.6147E+00  0.4773E+02
  12.990  0.6087E+00  0.6087E+00  0.4774E+02
  13.000  0.6024E+00  0.6024E+00  0.4775E+02
  13.010  0.5959E+00  0.5959E+00  0.4776E+02
  13.020  0.5893E+00  0.5893E+00  0.4777E+02
  13.030  0.5824E+00  0.5824E+00  0.4779E+02
  13.040  0.5753E+00  0.5753E+00  0.4780E+02
  13.050  0.5681E+00  0.5681E+00  0.4781E+02
  13.060  0.5607E+00  0.5607E+00  0.4782E+02
  13.070  0.5532E+00  0.5532E+00  0.4783E+02
  13.080  0.5455E+00  0.5455E+00  0.4784E+02
  13.090  0.5377E+00  0.5377E+00  0.4785E+02
  13.100  0.5298E+00  0.5298E+00  0.4786E+02
  13.110  0.5219E+00  0.5219E+00  0.4787E+02
  13.120  0.5139E+00  0.5139E+00  0.4788E+02
  13.130  0.5058E+00  0.5058E+00  0.4789E+02
  13.140  0.4978E+00  0.4978E+00  0.4790E+02
  13.150  0.4898E+00  0.4898E+00  0.4791E+02
  13.160  0.4819E+00  0.4819E+00  0.4792E+02
  13.170  0.4740E+00  0.4740E+00  0.4793E+02
  13.180  0.4662E+00  0.4662E+00  0.4794E+02
  13.190  0.4585E+00  0.4585E+00  0.4795E+02
  13.200  0.4510E+00  0.4510E+00  0.4796E+02
  13.210  0.4437E+00  0.4437E+00  0.4797E+02
  13.220  0.4366E+00  0.4366E+00  0.4798E+02
  13.230  0.4296E+00  0.4296E+00  0.4799E+02
  13.240  0.4229E+00  0.4229E+00  0.4800E+02
  13.250  0.4165E+00  0.4165E+00  0.4800E+02
  13.260  0.4103E+00  0.4103E+00  0.4801E+02
  13.270  0.4044E+00  0.4044E+00  0.4802E+02
  13.280  0.3988E+00  0.3988E+00  0.4803E+02
  13.290  0.3934E+00  0.3934E+00  0.4804E+02
  13.300  0.3884E+00  0.3884E+00  0.4804E+02
  13.310  0.3837E+00  0.3837E+00  0.4805E+02
  13.320  0.3793E+00  0.3793E+00  0.4806E+02
  13.330  0.3753E+00  0.3753E+00  0.4807E+02
  13.340  0.3715E+00  0.3715E+00  0.4807E+02
  13.350  0.3681E+00  0.3681E+00  0.4808E+02
  13.360  0.3650E+00  0.3650E+00  0.4809E+02
  13.370  0.3621E+00  0.3621E+00  0.4810E+02
  13.380  0.3596E+00  0.3596E+00  0.4810E+02
  13.390  0.3573E+00  0.3573E+00  0.4811E+02
  13.400  0.3553E+00  0.3553E+00  0.4812E+02
  13.410  0.3535E+00  0.3535E+00  0.4812E+02
  13.420  0.3520E+00  0.3520E+00  0.4813E+02
  13.430  0.3507E+00  0.3507E+00  0.4814E+02
  13.440  0.3496E+00  0.3496E+00  0.4814E+02
  13.450  0.3486E+00  0.3486E+00  0.4815E+02
  13.460  0.3478E+00  0.3478E+00  0.4816E+02
  13.470  0.3472E+00  0.3472E+00  0.4817E+02
  13.480  0.3467E+00  0.3467E+00  0.4817E+02
  13.490  0.3462E+00  0.3462E+00  0.4818E+02
  13.500  0.3459E+00  0.3459E+00  0.4819E+02
  13.510  0.3456E+00  0.3456E+00  0.4819E+02
  13.520  0.3453E+00  0.3453E+00  0.4820E+02
  13.530  0.3451E+00  0.3451E+00  0.4821E+02
  13.540  0.3448E+00  0.3448E+00  0.4821E+02
  13.550  0.3445E+00  0.3445E+00  0.4822E+02
  13.560  0.3442E+00  0.3442E+00  0.4823E+02
  13.570  0.3439E+00  0.3439E+00  0.4823E+02
  13.580  0.3434E+00  0.3434E+00  0.4824E+02
  13.590  0.3429E+00  0.3429E+00  0.4825E+02
  13.600  0.3423E+00  0.3423E+00  0.4826E+02
  13.610  0.3416E+00  0.3416E+00  0.4826E+02
  13.620  0.3407E+00  0.3407E+00  0.4827E+02
  13.630  0.3398E+00  0.3398E+00  0.4828E+02
  13.640  0.3387E+00  0.3387E+00  0.4828E+02
  13.650  0.3374E+00  0.3374E+00  0.4829E+02
  13.660  0.3361E+00  0.3361E+00  0.4830E+02
  13.670  0.3346E+00  0.3346E+00  0.4830E+02
  13.680  0.3330E+00  0.3330E+00  0.4831E+02
  13.690  0.3312E+00  0.3312E+00  0.4832E+02
  13.700  0.3293E+00  0.3293E+00  0.4832E+02
  13.710  0.3273E+00  0.3273E+00  0.4833E+02
  13.720  0.3252E+00  0.3252E+00  0.4834E+02
  13.730  0.3230E+00  0.3230E+00  0.4834E+02
  13.740  0.3208E+00  0.3208E+00  0.4835E+02
  13.750  0.3185E+00  0.3185E+00  0.4835E+02
  13.760  0.3161E+00  0.3161E+00  0.4836E+02
  13.770  0.3137E+00  0.3137E+00  0.4837E+02
  13.780  0.3113E+00  0.3113E+00  0.4837E+02
  13.790  0.3089E+00  0.3089E+00  0.4838E+02
  13.800  0.3066E+00  0.3066E+00  0.4839E+02
  13.810  0.3043E+00  0.3043E+00  0.4839E+02
  13.820  0.3022E+00  0.3022E+00  0.4840E+02
  13.830  0.3001E+00  0.3001E+00  0.4840E+02
  13.840  0.2982E+00  0.2982E+00  0.4841E+02
  13.850  0.2965E+00  0.2965E+00  0.4842E+02
  13.860  0.2950E+00  0.2950E+00  0.4842E+02
  13.870  0.2937E+00  0.2937E+00  0.4843E+02
  13.880  0.2927E+00  0.2927E+00  0.4843E+02
  13.890  0.2919E+00  0.2919E+00  0.4844E+02
  13.900  0.2914E+00  0.2914E+00  0.4845E+02
  13.910  0.2913E+00  0.2913E+00  0.4845E+02
  13.920  0.2915E+00  0.2915E+00  0.4846E+02
  13.930  0.2921E+00  0.2921E+00  0.4846E+02
  13.940  0.2931E+00  0.2931E+00  0.4847E+02
  13.950  0.2944E+00  0.2944E+00  0.4847E+02
  13.960  0.2962E+00  0.2962E+00  0.4848E+02
  13.970  0.2984E+00  0.2984E+00  0.4849E+02
  13.980  0.3010E+00  0.3010E+00  0.4849E+02
  13.990  0.3040E+00  0.3040E+00  0.4850E+02
  14.000  0.3075E+00  0.3075E+00  0.4850E+02
  14.010  0.3115E+00  0.3115E+00  0.4851E+02
  14.020  0.3158E+00  0.3158E+00  0.4852E+02
  14.030  0.3206E+00  0.3206E+00  0.4852E+02
  14.040  0.3259E+00  0.3259E+00  0.4853E+02
  14.050  0.3315E+00  0.3315E+00  0.4854E+02
  14.060  0.3376E+00  0.3376E+00  0.4854E+02
  14.070  0.3440E+00  0.3440E+00  0.4855E+02
  14.080  0.3509E+00  0.3509E+00  0.4856E+02
  14.090  0.3581E+00  0.3581E+00  0.4856E+02
  14.100  0.3657E+00  0.3657E+00  0.4857E+02
  14.110  0.3736E+00  0.3735E+00  0.4858E+02
  14.120  0.3817E+00  0.3817E+00  0.4859E+02
  14.130  0.3902E+00  0.3902E+00  0.4859E+02
  14.140  0.3990E+00  0.3990E+00  0.4860E+02
  14.150  0.4079E+00  0.4079E+00  0.4861E+02
  14.160  0.4171E+00  0.4171E+00  0.4862E+02
  14.170  0.4265E+00  0.4265E+00  0.4863E+02
  14.180  0.4361E+00  0.4361E+00  0.4864E+02
  14.190  0.4457E+00  0.4457E+00  0.4865E+02
  14.200  0.4555E+00  0.4555E+00  0.4865E+02
  14.210  0.4654E+00  0.4654E+00  0.4866E+02
  14.220  0.4754E+00  0.4754E+00  0.4867E+02
  14.230  0.4854E+00  0.4854E+00  0.4868E+02
  14.240  0.4954E+00  0.4954E+00  0.4869E+02
  14.250  0.5054E+00  0.5054E+00  0.4870E+02
  14.260  0.5154E+00  0.5154E+00  0.4871E+02
  14.270  0.5254E+00  0.5254E+00  0.4872E+02
  14.280  0.5353E+00  0.5353E+00  0.4873E+02
  14.290  0.5451E+00  0.5451E+00  0.4875E+02
  14.300  0.5549E+00  0.5549E+00  0.4876E+02
  14.310  0.5646E+00  0.5646E+00  0.4877E+02
  14.320  0.5742E+00  0.5742E+00  0.4878E+02
  14.330  0.5836E+00  0.5836E+00  0.4879E+02
  14.340  0.5930E+00  0.5930E+00  0.4880E+02
  14.350  0.6023E+00  0.6023E+00  0.4882E+02
  14.360  0.6115E+00  0.6115E+00  0.4883E+02
  14.370  0.6205E+00  0.6205E+00  0.4884E+02
  14.380  0.6295E+00  0.6295E+00  0.4885E+02
  14.390  0.6384E+00  0.6384E+00  0.4887E+02
  14.400  0.6473E+00  0.6473E+00  0.4888E+02
  14.410  0.6560E+00  0.6560E+00  0.4889E+02
  14.420  0.6648E+00  0.6648E+00  0.4890E+02
  14.430  0.6735E+00  0.6735E+00  0.4892E+02
  14.440  0.6822E+00  0.6822E+00  0.4893E+02
  14.450  0.6909E+00  0.6909E+00  0.4895E+02
  14.460  0.6996E+00  0.6996E+00  0.4896E+02
  14.470  0.7084E+00  0.7084E+00  0.4897E+02
  14.480  0.7173E+00  0.7173E+00  0.4899E+02
  14.490  0.7263E+00  0.7263E+00  0.4900E+02
  14.500  0.7354E+00  0.7354E+00  0.4902E+02
  14.510  0.7446E+00  0.7446E+00  0.4903E+02
  14.520  0.7540E+00  0.7540E+00  0.4905E+02
  14.530  0.7636E+00  0.7636E+00  0.4906E+02
  14.540  0.7734E+00  0.7734E+00  0.4908E+02
  14.550  0.7834E+00  0.7834E+00  0.4909E+02
  14.560  0.7936E+00  0.7936E+00  0.4911E+02
  14.570  0.8041E+00  0.8041E+00  0.4913E+02
  14.580  0.8147E+00  0.8147E+00  0.4914E+02
  14.590  0.8257E+00  0.8257E+00  0.4916E+02
  14.600  0.8368E+00  0.8368E+00  0.4918E+02
  14.610  0.8482E+00  0.8482E+00  0.4919E+02
  14.620  0.8597E+00  0.8597E+00  0.4921E+02
  14.630  0.8715E+00  0.8715E+00  0.4923E+02
  14.640  0.8834E+00  0.8834E+00  0.4924E+02
  14.650  0.8954E+00  0.8954E+00  0.4926E+02
  14.660  0.9075E+00  0.9075E+00  0.4928E+02
  14.670  0.9197E+00  0.9196E+00  0.4930E+02
  14.680  0.9318E+00  0.9318E+00  0.4932E+02
  14.690  0.9439E+00  0.9439E+00  0.4934E+02
  14.700  0.9558E+00  0.9558E+00  0.4936E+02
  14.710  0.9676E+00  0.9676E+00  0.4937E+02
  14.720  0.9791E+00  0.9791E+00  0.4939E+02
  14.730  0.9903E+00  0.9903E+00  0.4941E+02
  14.740  0.1001E+01  0.1001E+01  0.4943E+02
  14.750  0.1011E+01  0.1011E+01  0.4945E+02
  14.760  0.1021E+01  0.1021E+01  0.4947E+02
  14.770  0.1030E+01  0.1030E+01  0.4950E+02
  14.780  0.1039E+01  0.1039E+01  0.4952E+02
  14.790  0.1047E+01  0.1047E+01  0.4954E+02
  14.800  0.1053E+01  0.1053E+01  0.4956E+02
  14.810  0.1059E+01  0.1059E+01  0.4958E+02
  14.820  0.1064E+01  0.1064E+01  0.4960E+02
  14.830  0.1068E+01  0.1068E+01  0.4962E+02
  14.840  0.1071E+01  0.1071E+01  0.4964E+02
  14.850  0.1072E+01  0.1072E+01  0.4966E+02
  14.860  0.1073E+01  0.1073E+01  0.4969E+02
  14.870  0.1072E+01  0.1072E+01  0.4971E+02
  14.880  0.1070E+01  0.1070E+01  0.4973E+02
  14.890  0.1066E+01  0.1066E+01  0.4975E+02
  14.900  0.1062E+01  0.1062E+01  0.4977E+02
  14.910  0.1056E+01  0.1056E+01  0.4979E+02
  14.920  0.1048E+01  0.1048E+01  0.4981E+02
  14.930  0.1040E+01  0.1040E+01  0.4983E+02
  14.940  0.1030E+01  0.1030E+01  0.4986E+02
  14.950  0.1020E+01  0.1020E+01  0.4988E+02
  14.960  0.1008E+01  0.1008E+01  0.4990E+02
  14.970  0.9947E+00  0.9947E+00  0.4992E+02
  14.980  0.9809E+00  0.9809E+00  0.4994E+02
  14.990  0.9661E+00  0.9661E+00  0.4995E+02
  15.000  0.9505E+00  0.9505E+00  0.4997E+02
  15.010  0.9343E+00  0.9343E+00  0.4999E+02
  15.020  0.9174E+00  0.9174E+00  0.5001E+02
  15.030  0.9001E+00  0.9001E+00  0.5003E+02
  15.040  0.8823E+00  0.8823E+00  0.5005E+02
  15.050  0.8643E+00  0.8643E+00  0.5006E+02
  15.060  0.8461E+00  0.8461E+00  0.5008E+02
  15.070  0.8279E+00  0.8279E+00  0.5010E+02
  15.080  0.8097E+00  0.8097E+00  0.5011E+02
  15.090  0.7916E+00  0.7916E+00  0.5013E+02
  15.100  0.7739E+00  0.7739E+00  0.5014E+02
  15.110  0.7564E+00  0.7565E+00  0.5016E+02
  15.120  0.7395E+00  0.7395E+00  0.5017E+02
  15.130  0.7231E+00  0.7231E+00  0.5019E+02
  15.140  0.7074E+00  0.7074E+00  0.5020E+02
  15.150  0.6923E+00  0.6923E+00  0.5022E+02
  15.160  0.6781E+00  0.6781E+00  0.5023E+02
  15.170  0.6647E+00  0.6647E+00  0.5024E+02
  15.180  0.6522E+00  0.6522E+00  0.5026E+02
  15.190  0.6406E+00  0.6406E+00  0.5027E+02
  15.200  0.6301E+00  0.6301E+00  0.5028E+02
  15.210  0.6206E+00  0.6206E+00  0.5029E+02
  15.220  0.6121E+00  0.6121E+00  0.5031E+02
  15.230  0.6047E+00  0.6047E+00  0.5032E+02
  15.240  0.5984E+00  0.5984E+00  0.5033E+02
  15.250  0.5931E+00  0.5931E+00  0.5034E+02
  15.260  0.5890E+00  0.5890E+00  0.5035E+02
  15.270  0.5858E+00  0.5858E+00  0.5037E+02
  15.280  0.5838E+00  0.5838E+00  0.5038E+02
  15.290  0.5827E+00  0.5827E+00  0.5039E+02
  15.300  0.5826E+00  0.5826E+00  0.5040E+02
  15.310  0.5835E+00  0.5835E+00  0.5041E+02
  15.320  0.5853E+00  0.5853E+00  0.5042E+02
  15.330  0.5879E+00  0.5879E+00  0.5044E+02
  15.340  0.5914E+00  0.5914E+00  0.5045E+02
  15.350  0.5957E+00  0.5957E+00  0.5046E+02
  15.360  0.6007E+00  0.6007E+00  0.5047E+02
  15.370  0.6065E+00  0.6065E+00  0.5048E+02
  15.380  0.6128E+00  0.6128E+00  0.5050E+02
  15.390  0.6198E+00  0.6198E+00  0.5051E+02
  15.400  0.6273E+00  0.6273E+00  0.5052E+02
  15.410  0.6353E+00  0.6353E+00  0.5053E+02
  15.420  0.6438E+00  0.6438E+00  0.5055E+02
  15.430  0.6527E+00  0.6527E+00  0.5056E+02
  15.440  0.6619E+00  0.6619E+00  0.5057E+02
  15.450  0.6715E+00  0.6715E+00  0.5059E+02
  15.460  0.6813E+00  0.6813E+00  0.5060E+02
  15.470  0.6914E+00  0.6914E+00  0.5061E+02
  15.480  0.7017E+00  0.7017E+00  0.5063E+02
  15.490  0.7121E+00  0.7121E+00  0.5064E+02
  15.500  0.7226E+00  0.7226E+00  0.5066E+02
  15.510  0.7332E+00  0.7332E+00  0.5067E+02
  15.520  0.7439E+00  0.7439E+00  0.5069E+02
  15.530  0.7546E+00  0.7546E+00  0.5070E+02
  15.540  0.7653E+00  0.7653E+00  0.5072E+02
  15.550  0.7760E+00  0.7760E+00  0.5073E+02
  15.560  0.7866E+00  0.7866E+00  0.5075E+02
  15.570  0.7972E+00  0.7972E+00  0.5076E+02
  15.580  0.8076E+00  0.8076E+00  0.5078E+02
  15.590  0.8179E+00  0.8179E+00  0.5080E+02
  15.600  0.8281E+00  0.8281E+00  0.5081E+02
  15.610  0.8381E+00  0.8381E+00  0.5083E+02
  15.620  0.8480E+00  0.8480E+00  0.5085E+02
  15.630  0.8576E+00  0.8576E+00  0.5086E+02
  15.640  0.8671E+00  0.8671E+00  0.5088E+02
  15.650  0.8763E+00  0.8763E+00  0.5090E+02
  15.660  0.8853E+00  0.8853E+00  0.5092E+02
  15.670  0.8941E+00  0.8941E+00  0.5093E+02
  15.680  0.9026E+00  0.9026E+00  0.5095E+02
  15.690  0.9108E+00  0.9108E+00  0.5097E+02
  15.700  0.9188E+00  0.9188E+00  0.5099E+02
  15.710  0.9266E+00  0.9266E+00  0.5101E+02
  15.720  0.9340E+00  0.9340E+00  0.5103E+02
  15.730  0.9412E+00  0.9412E+00  0.5105E+02
  15.740  0.9481E+00  0.9481E+00  0.5106E+02
  15.750  0.9548E+00  0.9548E+00  0.5108E+02
  15.760  0.9611E+00  0.9611E+00  0.5110E+02
  15.770  0.9672E+00  0.9672E+00  0.5112E+02
  15.780  0.9730E+00  0.9730E+00  0.5114E+02
  15.790  0.9785E+00  0.9785E+00  0.5116E+02
  15.800  0.9836E+00  0.9836E+00  0.5118E+02
  15.810  0.9885E+00  0.9885E+00  0.5120E+02
  15.820  0.9931E+00  0.9931E+00  0.5122E+02
  15.830  0.9974E+00  0.9974E+00  0.5124E+02
  15.840  0.1001E+01  0.1001E+01  0.5126E+02
  15.850  0.1005E+01  0.1005E+01  0.5128E+02
  15.860  0.1008E+01  0.1008E+01  0.5130E+02
  15.870  0.1011E+01  0.1011E+01  0.5132E+02
  15.880  0.1014E+01  0.1014E+01  0.5134E+02
  15.890  0.1016E+01  0.1016E+01  0.5136E+02
  15.900  0.1018E+01  0.1018E+01  0.5138E+02
  15.910  0.1020E+01  0.1020E+01  0.5140E+02
  15.920  0.1021E+01  0.1021E+01  0.5142E+02
  15.930  0.1021E+01  0.1021E+01  0.5144E+02
  15.940  0.1021E+01  0.1021E+01  0.5146E+02
  15.950  0.1021E+01  0.1021E+01  0.5148E+02
  15.960  0.1020E+01  0.1020E+01  0.5150E+02
  15.970  0.1019E+01  0.1019E+01  0.5152E+02
  15.980  0.1017E+01  0.1017E+01  0.5154E+02
  15.990  0.1015E+01  0.1015E+01  0.5157E+02
  16.000  0.1012E+01  0.1012E+01  0.5159E+02
